GITM2 log file
## Inputs from UAM.in
# Resart= F
# Eddy coef:   100.000 Eddy P0:     0.010 Eddy P1:     0.005 Eddy Scaling:     1.000
# Statistical Models Only:  F Apex:  F
# EUV Data:  F
# AMIE: none           
none                                                                                                
# Solar Heating:  T Joule Heating:  F Auroral Heating:  F
# NO Cooling:  F O Cooling:  F
# Conduction:  T Turbulent Conduction:  F Updated Turbulent Conduction:  F
# Pressure Grad:  T Ion Drag:  F Neutral Drag:  T
# Viscosity:  T Coriolis:  T Gravity:  T
# Ion Chemistry:  F Ion Advection:  F Neutral Chemistry:  F
 
#START
   iStep yyyy mm dd hh mm ss  ms      dt min(T) max(T) mean(T) min(VV) max(VV) mean(VV) F107 F107A Bx By Bz Vx HPI
       2 2002 12 21 12  0  5 323  5.3235    166.50153    170.12081    167.96828     -6.00039     25.00000     -0.92259    150.0    150.0      0.0      0.0    -20.0    400.0      1.0
       3 2002 12 21 12  0 10 621  5.2980    166.42458    190.07249    168.18670    -10.91507     25.00000     -2.69131    150.0    150.0      0.0      0.0    -20.0    400.0      1.0
       4 2002 12 21 12  0 15 890  5.2687    166.31675    204.23753    168.32676    -15.60153     25.00000     -4.77629    150.0    150.0      0.0      0.0    -20.0    400.0      1.0
       5 2002 12 21 12  0 21 135  5.2450    166.17852    214.32592    168.41954    -20.65705     25.00000     -6.83866    150.0    150.0      0.0      0.0    -20.0    400.0      1.0
       6 2002 12 21 12  0 26 351  5.2164    166.01031    221.29374    168.48742    -25.00000     25.00000     -8.89068    150.0    150.0      0.0      0.0    -20.0    400.0      1.0
       7 2002 12 21 12  0 31 541  5.1900    165.80593    226.25443    168.52723    -25.00000     25.00000    -10.72069    150.0    150.0      0.0      0.0    -20.0    400.0      1.0
       8 2002 12 21 12  0 36 706  5.1653    165.57011    230.64624    168.54652    -25.00000     25.00000    -12.08439    150.0    150.0      0.0      0.0    -20.0    400.0      1.0
       9 2002 12 21 12  0 41 848  5.1418    165.30876    234.62232    168.55086    -25.00000     25.00000    -12.87269    150.0    150.0      0.0      0.0    -20.0    400.0      1.0
      10 2002 12 21 12  0 46 964  5.1156    165.08845    237.70009    168.54661    -25.00000     25.00000    -13.37653    150.0    150.0      0.0      0.0    -20.0    400.0      1.0
      11 2002 12 21 12  0 52  55  5.0908    164.86719    240.15272    168.53721    -25.00000     25.00000    -13.66638    150.0    150.0      0.0      0.0    -20.0    400.0      1.0
      12 2002 12 21 12  0 57 123  5.0682    164.64675    242.04961    168.52486    -25.00000     25.00000    -13.77656    150.0    150.0      0.0      0.0    -20.0    400.0      1.0
      13 2002 12 21 12  1  2 165  5.0424    164.42764    243.56246    168.51104    -25.00000     25.00000    -13.74460    150.0    150.0      0.0      0.0    -20.0    400.0      1.0
      14 2002 12 21 12  1  7 209  5.0440    164.21162    244.99122    168.49649    -25.00000     25.00000    -13.64432    150.0    150.0      0.0      0.0    -20.0    400.0      1.0
      15 2002 12 21 12  1 12 258  5.0490    163.99568    246.40165    168.47996    -25.00000     25.00000    -13.54408    150.0    150.0      0.0      0.0    -20.0    400.0      1.0
      16 2002 12 21 12  1 17 314  5.0557    163.77975    247.38761    168.45910    -25.00000     25.00000    -13.42084    150.0    150.0      0.0      0.0    -20.0    400.0      1.0
      17 2002 12 21 12  1 22 372  5.0582    163.56405    248.00327    168.43462    -25.00000     25.00000    -13.28239    150.0    150.0      0.0      0.0    -20.0    400.0      1.0
      18 2002 12 21 12  1 27 433  5.0608    163.34859    248.20690    168.40802    -25.00000     25.00000    -13.14119    150.0    150.0      0.0      0.0    -20.0    400.0      1.0
      19 2002 12 21 12  1 32 497  5.0644    162.76326    248.30417    168.38243    -25.00000     25.00000    -13.00571    150.0    150.0      0.0      0.0    -20.0    400.0      1.0
      20 2002 12 21 12  1 37 563  5.0658    162.19307    248.91585    168.35889    -25.00000     25.00000    -12.85461    150.0    150.0      0.0      0.0    -20.0    400.0      1.0
      21 2002 12 21 12  1 42 631  5.0675    161.76914    249.61901    168.33350    -25.00000     25.00000    -12.68399    150.0    150.0      0.0      0.0    -20.0    400.0      1.0
      22 2002 12 21 12  1 47 703  5.0723    161.48450    250.33154    168.30700    -25.00000     25.00000    -12.52534    150.0    150.0      0.0      0.0    -20.0    400.0      1.0
      23 2002 12 21 12  1 52 776  5.0729    161.23624    250.92633    168.27884    -25.00000     25.00000    -12.35845    150.0    150.0      0.0      0.0    -20.0    400.0      1.0
      24 2002 12 21 12  1 57 851  5.0753    160.90346    251.44232    168.24774    -25.00000     25.00000    -12.17451    150.0    150.0      0.0      0.0    -20.0    400.0      1.0
      25 2002 12 21 12  2  2 931  5.0799    160.59628    251.88550    168.21418    -25.00000     25.00000    -11.98871    150.0    150.0      0.0      0.0    -20.0    400.0      1.0
      26 2002 12 21 12  2  8  12  5.0806    160.19432    252.25160    168.18060    -25.00000     25.00000    -11.81100    150.0    150.0      0.0      0.0    -20.0    400.0      1.0
      27 2002 12 21 12  2 13  95  5.0831    159.77720    252.56609    168.14544    -25.00000     25.00000    -11.63275    150.0    150.0      0.0      0.0    -20.0    400.0      1.0
      28 2002 12 21 12  2 18 181  5.0866    159.38707    252.90486    168.10742    -25.00000     25.00000    -11.44170    150.0    150.0      0.0      0.0    -20.0    400.0      1.0
      29 2002 12 21 12  2 23 270  5.0886    159.02545    253.31504    168.06837    -25.00000     25.00000    -11.25013    150.0    150.0      0.0      0.0    -20.0    400.0      1.0
      30 2002 12 21 12  2 28 360  5.0902    158.76144    253.72297    168.02874    -25.00000     25.00000    -11.07094    150.0    150.0      0.0      0.0    -20.0    400.0      1.0
      31 2002 12 21 12  2 33 452  5.0921    158.57827    254.10593    167.98694    -25.00000     25.00000    -10.89485    150.0    150.0      0.0      0.0    -20.0    400.0      1.0
      32 2002 12 21 12  2 38 546  5.0941    158.48617    254.45384    167.94245    -25.00000     25.00000    -10.71251    150.0    150.0      0.0      0.0    -20.0    400.0      1.0
      33 2002 12 21 12  2 43 644  5.0972    158.40345    254.76280    167.89723    -25.00000     25.00000    -10.54680    150.0    150.0      0.0      0.0    -20.0    400.0      1.0
      34 2002 12 21 12  2 48 744  5.1006    158.28845    255.06328    167.85104    -25.00000     25.00000    -10.38718    150.0    150.0      0.0      0.0    -20.0    400.0      1.0
      35 2002 12 21 12  2 53 846  5.1020    158.14872    255.37334    167.80219    -25.00000     25.00000    -10.23205    150.0    150.0      0.0      0.0    -20.0    400.0      1.0
      36 2002 12 21 12  2 58 951  5.1045    157.96789    255.69621    167.75188    -25.00000     25.00000    -10.06530    150.0    150.0      0.0      0.0    -20.0    400.0      1.0
      37 2002 12 21 12  3  4  56  5.1049    157.81212    256.03383    167.70100    -25.00000     25.00000     -9.90798    150.0    150.0      0.0      0.0    -20.0    400.0      1.0
      38 2002 12 21 12  3  9 163  5.1073    157.59729    256.36051    167.64856    -25.00000     25.00000     -9.76558    150.0    150.0      0.0      0.0    -20.0    400.0      1.0
      39 2002 12 21 12  3 14 273  5.1100    157.35930    256.65322    167.59279    -25.00000     25.00000     -9.60724    150.0    150.0      0.0      0.0    -20.0    400.0      1.0
      40 2002 12 21 12  3 19 385  5.1121    157.09811    256.88896    167.53568    -25.00000     25.00000     -9.46300    150.0    150.0      0.0      0.0    -20.0    400.0      1.0
      41 2002 12 21 12  3 24 503  5.1178    156.83147    257.07793    167.47757    -25.00000     25.00000     -9.32219    150.0    150.0      0.0      0.0    -20.0    400.0      1.0
      42 2002 12 21 12  3 29 622  5.1197    156.58440    257.25539    167.41677    -25.00000     25.00000     -9.18828    150.0    150.0      0.0      0.0    -20.0    400.0      1.0
      43 2002 12 21 12  3 34 745  5.1225    156.43104    257.44068    167.35374    -25.00000     25.00000     -9.05324    150.0    150.0      0.0      0.0    -20.0    400.0      1.0
      44 2002 12 21 12  3 39 871  5.1265    156.39551    257.63580    167.29040    -25.00000     25.00000     -8.92541    150.0    150.0      0.0      0.0    -20.0    400.0      1.0
      45 2002 12 21 12  3 45   2  5.1303    156.32089    257.83609    167.22527    -25.00000     25.00000     -8.80692    150.0    150.0      0.0      0.0    -20.0    400.0      1.0
      46 2002 12 21 12  3 50 135  5.1328    156.21197    258.03781    167.15699    -25.00000     25.00000     -8.68297    150.0    150.0      0.0      0.0    -20.0    400.0      1.0
      47 2002 12 21 12  3 55 270  5.1353    156.07648    258.24160    167.08734    -25.00000     25.00000     -8.56335    150.0    150.0      0.0      0.0    -20.0    400.0      1.0
      48 2002 12 21 12  4  0 405  5.1354    155.87332    258.44407    167.01696    -25.00000     25.00000     -8.45423    150.0    150.0      0.0      0.0    -20.0    400.0      1.0
      49 2002 12 21 12  4  5 543  5.1382    155.63356    258.63722    166.94465    -25.00000     25.00000     -8.34804    150.0    150.0      0.0      0.0    -20.0    400.0      1.0
      50 2002 12 21 12  4 10 682  5.1385    155.37405    258.80946    166.86965    -25.00000     25.00000     -8.23844    150.0    150.0      0.0      0.0    -20.0    400.0      1.0
      51 2002 12 21 12  4 15 822  5.1403    155.11988    258.96078    166.79459    -25.00000     25.00000     -8.13655    150.0    150.0      0.0      0.0    -20.0    400.0      1.0
      52 2002 12 21 12  4 20 966  5.1437    154.93260    259.10356    166.71817    -25.00000     25.00000     -8.02749    150.0    150.0      0.0      0.0    -20.0    400.0      1.0
      53 2002 12 21 12  4 26 112  5.1456    154.81003    259.25407    166.63901    -25.00000     25.00000     -7.93211    150.0    150.0      0.0      0.0    -20.0    400.0      1.0
      54 2002 12 21 12  4 31 260  5.1489    154.70601    259.41569    166.55856    -25.00000     25.00000     -7.83910    150.0    150.0      0.0      0.0    -20.0    400.0      1.0
      55 2002 12 21 12  4 36 406  5.1457    154.53080    259.57910    166.47770    -25.00000     25.00000     -7.74315    150.0    150.0      0.0      0.0    -20.0    400.0      1.0
      56 2002 12 21 12  4 41 553  5.1471    154.30350    259.73596    166.39514    -25.00000     25.00000     -7.66369    150.0    150.0      0.0      0.0    -20.0    400.0      1.0
      57 2002 12 21 12  4 46 700  5.1464    154.13707    259.88280    166.31002    -25.00000     25.00000     -7.58163    150.0    150.0      0.0      0.0    -20.0    400.0      1.0
      58 2002 12 21 12  4 51 850  5.1503    153.82440    260.02127    166.22461    -25.00000     25.00000     -7.49100    150.0    150.0      0.0      0.0    -20.0    400.0      1.0
      59 2002 12 21 12  4 57   1  5.1515    153.52063    260.15640    166.13773    -25.00000     25.00000     -7.41059    150.0    150.0      0.0      0.0    -20.0    400.0      1.0
      60 2002 12 21 12  5  2 157  5.1554    153.23791    260.29207    166.04832    -25.00000     25.00000     -7.33088    150.0    150.0      0.0      0.0    -20.0    400.0      1.0
      61 2002 12 21 12  5  7 314  5.1568    152.97668    260.42791    165.95795    -25.00000     25.00000     -7.23890    150.0    150.0      0.0      0.0    -20.0    400.0      1.0
      62 2002 12 21 12  5 12 472  5.1580    152.80305    260.55809    165.86781    -25.00000     25.00000     -7.13471    150.0    150.0      0.0      0.0    -20.0    400.0      1.0
      63 2002 12 21 12  5 17 632  5.1608    152.72646    260.68027    165.77555    -25.00000     25.00000     -7.01720    150.0    150.0      0.0      0.0    -20.0    400.0      1.0
      64 2002 12 21 12  5 22 793  5.1605    152.73086    260.79418    165.67946    -25.00000     25.00000     -6.94201    150.0    150.0      0.0      0.0    -20.0    400.0      1.0
      65 2002 12 21 12  5 27 956  5.1635    152.60372    260.90157    165.58353    -25.00000     25.00000     -6.82505    150.0    150.0      0.0      0.0    -20.0    400.0      1.0
      66 2002 12 21 12  5 33 122  5.1653    152.45189    260.99960    165.48589    -25.00000     25.00000     -6.72695    150.0    150.0      0.0      0.0    -20.0    400.0      1.0
      67 2002 12 21 12  5 38 289  5.1670    152.39342    261.09129    165.38535    -25.00000     25.00000     -6.62917    150.0    150.0      0.0      0.0    -20.0    400.0      1.0
      68 2002 12 21 12  5 43 456  5.1670    152.32678    261.18207    165.28187    -25.00000     25.00000     -6.51286    150.0    150.0      0.0      0.0    -20.0    400.0      1.0
      69 2002 12 21 12  5 48 624  5.1681    151.78904    261.27813    165.17687    -25.00000     25.00000     -6.44258    150.0    150.0      0.0      0.0    -20.0    400.0      1.0
      70 2002 12 21 12  5 53 790  5.1665    151.69688    261.37896    165.07067    -25.00000     25.00000     -6.33690    150.0    150.0      0.0      0.0    -20.0    400.0      1.0
      71 2002 12 21 12  5 58 960  5.1694    150.74005    261.48151    164.96048    -25.00000     25.00000     -6.26892    150.0    150.0      0.0      0.0    -20.0    400.0      1.0
      72 2002 12 21 12  6  4 130  5.1701    150.60685    261.58067    164.85019    -25.00000     25.00000     -6.18240    150.0    150.0      0.0      0.0    -20.0    400.0      1.0
      73 2002 12 21 12  6  9 302  5.1719    150.15417    261.67278    164.73974    -25.00000     25.00000     -6.11743    150.0    150.0      0.0      0.0    -20.0    400.0      1.0
      74 2002 12 21 12  6 14 474  5.1718    149.96861    261.75243    164.62668    -25.00000     25.00000     -6.07025    150.0    150.0      0.0      0.0    -20.0    400.0      1.0
      75 2002 12 21 12  6 19 646  5.1723    149.77402    261.82251    164.51201    -25.00000     25.00000     -5.99453    150.0    150.0      0.0      0.0    -20.0    400.0      1.0
      76 2002 12 21 12  6 24 821  5.1747    149.40191    261.88397    164.39766    -25.00000     25.00000     -5.98113    150.0    150.0      0.0      0.0    -20.0    400.0      1.0
      77 2002 12 21 12  6 29 995  5.1745    149.45535    261.94218    164.28349    -25.00000     25.00000     -5.92184    150.0    150.0      0.0      0.0    -20.0    400.0      1.0
      78 2002 12 21 12  6 35 171  5.1755    148.96362    262.00008    164.16660    -25.00000     25.00000     -5.92139    150.0    150.0      0.0      0.0    -20.0    400.0      1.0
      79 2002 12 21 12  6 40 349  5.1781    148.85327    262.06288    164.05036    -25.00000     25.00000     -5.89695    150.0    150.0      0.0      0.0    -20.0    400.0      1.0
      80 2002 12 21 12  6 45 528  5.1796    148.34352    262.11831    163.93313    -25.00000     25.00000     -5.88097    150.0    150.0      0.0      0.0    -20.0    400.0      1.0
      81 2002 12 21 12  6 50 709  5.1803    147.96442    262.16893    163.81423    -25.00000     25.00000     -5.88573    150.0    150.0      0.0      0.0    -20.0    400.0      1.0
      82 2002 12 21 12  6 55 889  5.1805    147.67998    262.21718    163.69523    -25.00000     25.00000     -5.87936    150.0    150.0      0.0      0.0    -20.0    400.0      1.0
      83 2002 12 21 12  7  1  71  5.1821    147.20832    262.26342    163.57617    -25.00000     25.00000     -5.90311    150.0    150.0      0.0      0.0    -20.0    400.0      1.0
      84 2002 12 21 12  7  6 255  5.1833    147.12226    262.30769    163.45769    -25.00000     25.00000     -5.89458    150.0    150.0      0.0      0.0    -20.0    400.0      1.0
      85 2002 12 21 12  7 11 440  5.1852    146.99218    262.35072    163.33828    -25.00000     25.00000     -5.90422    150.0    150.0      0.0      0.0    -20.0    400.0      1.0
      86 2002 12 21 12  7 16 627  5.1874    146.90840    262.39435    163.21887    -25.00000     25.00000     -5.90890    150.0    150.0      0.0      0.0    -20.0    400.0      1.0
      87 2002 12 21 12  7 21 814  5.1864    146.93030    262.44092    163.10029    -25.00000     25.00000     -5.92849    150.0    150.0      0.0      0.0    -20.0    400.0      1.0
      88 2002 12 21 12  7 27   1  5.1873    147.08534    262.48948    162.98315    -25.00000     25.00000     -5.95073    150.0    150.0      0.0      0.0    -20.0    400.0      1.0
      89 2002 12 21 12  7 32 189  5.1885    146.41874    262.53743    162.86556    -25.00000     25.00000     -5.96697    150.0    150.0      0.0      0.0    -20.0    400.0      1.0
      90 2002 12 21 12  7 37 378  5.1890    146.04835    262.58460    162.74794    -25.00000     25.00000     -6.00913    150.0    150.0      0.0      0.0    -20.0    400.0      1.0
      91 2002 12 21 12  7 42 572  5.1934    146.00299    262.62173    162.63156    -25.00000     25.00000     -6.03839    150.0    150.0      0.0      0.0    -20.0    400.0      1.0
      92 2002 12 21 12  7 47 766  5.1939    145.54507    262.64873    162.51417    -25.00000     25.00000     -6.05980    150.0    150.0      0.0      0.0    -20.0    400.0      1.0
      93 2002 12 21 12  7 52 960  5.1940    145.38411    262.66959    162.39779    -25.00000     25.00000     -6.10638    150.0    150.0      0.0      0.0    -20.0    400.0      1.0
      94 2002 12 21 12  7 58 154  5.1940    145.48076    262.69009    162.28426    -25.00000     25.00000     -6.15688    150.0    150.0      0.0      0.0    -20.0    400.0      1.0
      95 2002 12 21 12  8  3 348  5.1940    145.14682    262.71125    162.17016    -25.00000     25.00000     -6.20682    150.0    150.0      0.0      0.0    -20.0    400.0      1.0
      96 2002 12 21 12  8  8 545  5.1970    145.16952    262.73300    162.05651    -25.00000     25.00000     -6.25440    150.0    150.0      0.0      0.0    -20.0    400.0      1.0
      97 2002 12 21 12  8 13 742  5.1977    145.06979    262.75566    161.94434    -25.00000     25.00000     -6.32369    150.0    150.0      0.0      0.0    -20.0    400.0      1.0
      98 2002 12 21 12  8 18 941  5.1984    144.69121    262.77991    161.83425    -25.00000     25.00000     -6.39083    150.0    150.0      0.0      0.0    -20.0    400.0      1.0
      99 2002 12 21 12  8 24 140  5.1989    144.41822    262.80841    161.72552    -25.00000     25.00000     -6.45917    150.0    150.0      0.0      0.0    -20.0    400.0      1.0
     100 2002 12 21 12  8 29 339  5.1997    144.14826    262.83916    161.61686    -25.00000     25.00000     -6.54005    150.0    150.0      0.0      0.0    -20.0    400.0      1.0
     101 2002 12 21 12  8 34 543  5.2036    143.78119    262.86554    161.50861    -25.00000     25.00000     -6.64543    150.0    150.0      0.0      0.0    -20.0    400.0      1.0
     102 2002 12 21 12  8 39 747  5.2041    143.60117    262.88682    161.40117    -25.00000     25.00000     -6.74991    150.0    150.0      0.0      0.0    -20.0    400.0      1.0
     103 2002 12 21 12  8 44 949  5.2022    143.36300    262.90213    161.29323    -25.00000     25.00000     -6.84788    150.0    150.0      0.0      0.0    -20.0    400.0      1.0
     104 2002 12 21 12  8 50 154  5.2043    143.07383    262.91179    161.18643    -25.00000     25.00000     -6.95147    150.0    150.0      0.0      0.0    -20.0    400.0      1.0
     105 2002 12 21 12  8 55 356  5.2021    142.81543    262.91668    161.08331    -25.00000     25.00000     -7.07216    150.0    150.0      0.0      0.0    -20.0    400.0      1.0
     106 2002 12 21 12  9  0 560  5.2044    142.48950    262.91491    160.97982    -25.00000     25.00000     -7.19803    150.0    150.0      0.0      0.0    -20.0    400.0      1.0
     107 2002 12 21 12  9  5 765  5.2052    142.13311    262.90780    160.87543    -25.00000     25.00000     -7.32022    150.0    150.0      0.0      0.0    -20.0    400.0      1.0
     108 2002 12 21 12  9 10 973  5.2077    141.95184    262.88804    160.77424    -25.00000     25.00000     -7.44926    150.0    150.0      0.0      0.0    -20.0    400.0      1.0
     109 2002 12 21 12  9 16 184  5.2111    141.78103    262.87457    160.67500    -25.00000     25.00000     -7.57837    150.0    150.0      0.0      0.0    -20.0    400.0      1.0
     110 2002 12 21 12  9 21 396  5.2123    141.43886    262.88055    160.57483    -25.00000     25.00000     -7.70399    150.0    150.0      0.0      0.0    -20.0    400.0      1.0
     111 2002 12 21 12  9 26 608  5.2120    141.12052    262.90719    160.47720    -25.00000     25.00000     -7.81185    150.0    150.0      0.0      0.0    -20.0    400.0      1.0
     112 2002 12 21 12  9 31 823  5.2147    140.83647    262.94416    160.37998    -25.00000     25.00000     -7.90188    150.0    150.0      0.0      0.0    -20.0    400.0      1.0
     113 2002 12 21 12  9 37  37  5.2140    140.50459    262.98030    160.28064    -25.00000     25.00000     -7.96460    150.0    150.0      0.0      0.0    -20.0    400.0      1.0
     114 2002 12 21 12  9 42 254  5.2174    140.31400    263.01492    160.18176    -25.00000     25.00000     -8.01585    150.0    150.0      0.0      0.0    -20.0    400.0      1.0
     115 2002 12 21 12  9 47 473  5.2190    140.06575    263.04969    160.08505    -25.00000     25.00000     -8.06083    150.0    150.0      0.0      0.0    -20.0    400.0      1.0
     116 2002 12 21 12  9 52 693  5.2193    139.77851    263.07579    159.98828    -25.00000     25.00000     -8.09744    150.0    150.0      0.0      0.0    -20.0    400.0      1.0
     117 2002 12 21 12  9 57 912  5.2194    139.68089    263.08506    159.89021    -25.00000     25.00000     -8.13294    150.0    150.0      0.0      0.0    -20.0    400.0      1.0
     118 2002 12 21 12 10  3 131  5.2188    139.56675    263.08539    159.79239    -25.00000     25.00000     -8.13646    150.0    150.0      0.0      0.0    -20.0    400.0      1.0
     119 2002 12 21 12 10  8 350  5.2194    139.37375    263.05267    159.69504    -25.00000     25.00000     -8.13625    150.0    150.0      0.0      0.0    -20.0    400.0      1.0
     120 2002 12 21 12 10 13 572  5.2220    139.12314    262.98837    159.59828    -25.00000     25.00000     -8.12617    150.0    150.0      0.0      0.0    -20.0    400.0      1.0
     121 2002 12 21 12 10 18 795  5.2230    138.91735    262.90314    159.50150    -25.00000     25.00000     -8.10947    150.0    150.0      0.0      0.0    -20.0    400.0      1.0
     122 2002 12 21 12 10 24  18  5.2228    138.63566    262.81344    159.40556    -25.00000     25.00000     -8.09275    150.0    150.0      0.0      0.0    -20.0    400.0      1.0
     123 2002 12 21 12 10 29 242  5.2244    138.45630    262.75453    159.30917    -25.00000     25.00000     -8.06292    150.0    150.0      0.0      0.0    -20.0    400.0      1.0
     124 2002 12 21 12 10 34 466  5.2238    138.15573    262.75254    159.21217    -25.00000     25.00000     -8.03011    150.0    150.0      0.0      0.0    -20.0    400.0      1.0
     125 2002 12 21 12 10 39 694  5.2276    137.87740    262.78317    159.11326    -25.00000     25.00000     -7.99795    150.0    150.0      0.0      0.0    -20.0    400.0      1.0
     126 2002 12 21 12 10 44 921  5.2271    137.76361    262.82800    159.01413    -25.00000     25.00000     -7.94527    150.0    150.0      0.0      0.0    -20.0    400.0      1.0
     127 2002 12 21 12 10 50 150  5.2287    137.54281    262.88547    158.91631    -25.00000     25.00000     -7.87665    150.0    150.0      0.0      0.0    -20.0    400.0      1.0
     128 2002 12 21 12 10 55 379  5.2288    137.30502    262.94654    158.81797    -25.00000     25.00000     -7.80675    150.0    150.0      0.0      0.0    -20.0    400.0      1.0
     129 2002 12 21 12 11  0 606  5.2276    137.00438    263.00379    158.71958    -25.00000     25.00000     -7.73839    150.0    150.0      0.0      0.0    -20.0    400.0      1.0
     130 2002 12 21 12 11  5 836  5.2297    136.63854    263.04402    158.62073    -25.00000     25.00000     -7.66970    150.0    150.0      0.0      0.0    -20.0    400.0      1.0
     131 2002 12 21 12 11 11  65  5.2290    136.39485    263.06178    158.52342    -25.00000     25.00000     -7.60902    150.0    150.0      0.0      0.0    -20.0    400.0      1.0
     132 2002 12 21 12 11 16 297  5.2316    136.22819    263.05432    158.42772    -25.00000     25.00000     -7.56326    150.0    150.0      0.0      0.0    -20.0    400.0      1.0
     133 2002 12 21 12 11 21 531  5.2345    135.89057    263.00731    158.33372    -25.00000     25.00000     -7.48149    150.0    150.0      0.0      0.0    -20.0    400.0      1.0
     134 2002 12 21 12 11 26 767  5.2358    135.74565    262.96236    158.24005    -25.00000     25.00000     -7.43738    150.0    150.0      0.0      0.0    -20.0    400.0      1.0
     135 2002 12 21 12 11 32   1  5.2347    135.43817    262.96302    158.14713    -25.00000     25.00000     -7.39116    150.0    150.0      0.0      0.0    -20.0    400.0      1.0
     136 2002 12 21 12 11 37 238  5.2366    135.06732    262.98955    158.05492    -25.00000     25.00000     -7.31349    150.0    150.0      0.0      0.0    -20.0    400.0      1.0
     137 2002 12 21 12 11 42 474  5.2360    134.76311    263.03742    157.96240    -25.00000     25.00000     -7.24721    150.0    150.0      0.0      0.0    -20.0    400.0      1.0
     138 2002 12 21 12 11 47 713  5.2392    134.63850    263.10767    157.87075    -25.00000     25.00000     -7.14474    150.0    150.0      0.0      0.0    -20.0    400.0      1.0
     139 2002 12 21 12 11 52 953  5.2396    133.79840    263.18788    157.77887    -25.00000     25.00000     -7.06269    150.0    150.0      0.0      0.0    -20.0    400.0      1.0
     140 2002 12 21 12 11 58 190  5.2372    133.39822    263.26522    157.68946    -25.00000     25.00000     -6.96665    150.0    150.0      0.0      0.0    -20.0    400.0      1.0
     141 2002 12 21 12 12  3 429  5.2389    133.09456    263.33203    157.59875    -25.00000     25.00000     -6.90832    150.0    150.0      0.0      0.0    -20.0    400.0      1.0
     142 2002 12 21 12 12  8 666  5.2371    132.23841    263.38761    157.50855    -25.00000     25.00000     -6.83545    150.0    150.0      0.0      0.0    -20.0    400.0      1.0
     143 2002 12 21 12 12 13 905  5.2389    132.01791    263.43378    157.41989    -25.00000     25.00000     -6.76857    150.0    150.0      0.0      0.0    -20.0    400.0      1.0
     144 2002 12 21 12 12 19 145  5.2403    131.74481    263.47252    157.33273    -25.00000     25.00000     -6.74476    150.0    150.0      0.0      0.0    -20.0    400.0      1.0
     145 2002 12 21 12 12 24 387  5.2414    130.99676    263.50663    157.24761    -25.00000     25.00000     -6.65171    150.0    150.0      0.0      0.0    -20.0    400.0      1.0
     146 2002 12 21 12 12 29 630  5.2432    130.87015    263.53702    157.16128    -25.00000     25.00000     -6.62460    150.0    150.0      0.0      0.0    -20.0    400.0      1.0
     147 2002 12 21 12 12 34 874  5.2446    130.71625    263.56679    157.07520    -25.00000     25.00000     -6.60036    150.0    150.0      0.0      0.0    -20.0    400.0      1.0
     148 2002 12 21 12 12 40 117  5.2426    130.16596    263.60096    156.99088    -25.00000     25.00000     -6.53802    150.0    150.0      0.0      0.0    -20.0    400.0      1.0
     149 2002 12 21 12 12 45 361  5.2442    129.95841    263.64118    156.90606    -25.00000     25.00000     -6.51502    150.0    150.0      0.0      0.0    -20.0    400.0      1.0
     150 2002 12 21 12 12 50 606  5.2448    129.76727    263.68618    156.82012    -25.00000     25.00000     -6.46088    150.0    150.0      0.0      0.0    -20.0    400.0      1.0
     151 2002 12 21 12 12 55 852  5.2460    129.50569    263.73629    156.73412    -25.00000     25.00000     -6.39804    150.0    150.0      0.0      0.0    -20.0    400.0      1.0
     152 2002 12 21 12 13  1  99  5.2469    129.15351    263.79041    156.64817    -25.00000     25.00000     -6.37186    150.0    150.0      0.0      0.0    -20.0    400.0      1.0
     153 2002 12 21 12 13  6 345  5.2459    128.90705    263.84610    156.56234    -25.00000     25.00000     -6.33485    150.0    150.0      0.0      0.0    -20.0    400.0      1.0
     154 2002 12 21 12 13 11 591  5.2456    128.69514    263.90105    156.47596    -25.00000     25.00000     -6.28814    150.0    150.0      0.0      0.0    -20.0    400.0      1.0
     155 2002 12 21 12 13 16 837  5.2469    128.29915    263.95318    156.39044    -25.00000     25.00000     -6.23848    150.0    150.0      0.0      0.0    -20.0    400.0      1.0
     156 2002 12 21 12 13 22  84  5.2471    128.04335    264.00279    156.30497    -25.00000     25.00000     -6.24154    150.0    150.0      0.0      0.0    -20.0    400.0      1.0
     157 2002 12 21 12 13 27 333  5.2489    127.71980    264.05310    156.21744    -25.00000     25.00000     -6.20560    150.0    150.0      0.0      0.0    -20.0    400.0      1.0
     158 2002 12 21 12 13 32 585  5.2514    127.36712    264.10569    156.12940    -25.00000     25.00000     -6.16309    150.0    150.0      0.0      0.0    -20.0    400.0      1.0
     159 2002 12 21 12 13 37 837  5.2525    127.16082    264.16232    156.04224    -25.00000     25.00000     -6.16480    150.0    150.0      0.0      0.0    -20.0    400.0      1.0
     160 2002 12 21 12 13 43  89  5.2513    127.09116    264.22028    155.95436    -25.00000     25.00000     -6.14096    150.0    150.0      0.0      0.0    -20.0    400.0      1.0
     161 2002 12 21 12 13 48 341  5.2524    126.83393    264.27727    155.86552    -25.00000     25.00000     -6.11158    150.0    150.0      0.0      0.0    -20.0    400.0      1.0
     162 2002 12 21 12 13 53 593  5.2516    126.68366    264.33221    155.77400    -25.00000     25.00000     -6.09259    150.0    150.0      0.0      0.0    -20.0    400.0      1.0
     163 2002 12 21 12 13 58 846  5.2538    126.57282    264.38470    155.68351    -25.00000     25.00000     -6.08626    150.0    150.0      0.0      0.0    -20.0    400.0      1.0
     164 2002 12 21 12 14  4 101  5.2544    126.33262    264.43462    155.59130    -25.00000     25.00000     -6.08317    150.0    150.0      0.0      0.0    -20.0    400.0      1.0
     165 2002 12 21 12 14  9 354  5.2529    126.39949    264.48216    155.49723    -25.00000     25.00000     -6.08211    150.0    150.0      0.0      0.0    -20.0    400.0      1.0
     166 2002 12 21 12 14 14 607  5.2535    126.30829    264.52854    155.40465    -25.00000     25.00000     -6.08143    150.0    150.0      0.0      0.0    -20.0    400.0      1.0
     167 2002 12 21 12 14 19 859  5.2524    126.02671    264.57287    155.31120    -25.00000     25.00000     -6.09499    150.0    150.0      0.0      0.0    -20.0    400.0      1.0
     168 2002 12 21 12 14 25 113  5.2532    126.05052    264.61775    155.21470    -25.00000     25.00000     -6.14683    150.0    150.0      0.0      0.0    -20.0    400.0      1.0
     169 2002 12 21 12 14 30 367  5.2548    126.01045    264.66968    155.11659    -25.00000     25.00000     -6.17931    150.0    150.0      0.0      0.0    -20.0    400.0      1.0
     170 2002 12 21 12 14 35 623  5.2555    125.63426    264.72811    155.01787    -25.00000     25.00000     -6.17293    150.0    150.0      0.0      0.0    -20.0    400.0      1.0
     171 2002 12 21 12 14 40 879  5.2561    125.28141    264.78188    154.91823    -25.00000     25.00000     -6.25811    150.0    150.0      0.0      0.0    -20.0    400.0      1.0
     172 2002 12 21 12 14 46 135  5.2561    124.86256    264.83052    154.81951    -25.00000     25.00000     -6.29590    150.0    150.0      0.0      0.0    -20.0    400.0      1.0
     173 2002 12 21 12 14 51 391  5.2555    124.42446    264.87377    154.71912    -25.00000     25.00000     -6.28804    150.0    150.0      0.0      0.0    -20.0    400.0      1.0
     174 2002 12 21 12 14 56 646  5.2553    124.08925    264.90951    154.61734    -25.00000     25.00000     -6.36130    150.0    150.0      0.0      0.0    -20.0    400.0      1.0
     175 2002 12 21 12 15  1 903  5.2566    123.77035    264.94648    154.51731    -25.00000     25.00000     -6.42272    150.0    150.0      0.0      0.0    -20.0    400.0      1.0
     176 2002 12 21 12 15  7 159  5.2569    123.37849    264.97566    154.42075    -25.00000     25.00000     -6.46371    150.0    150.0      0.0      0.0    -20.0    400.0      1.0
     177 2002 12 21 12 15 12 417  5.2573    123.08227    265.25840    154.32218    -25.00000     25.00000     -6.55365    150.0    150.0      0.0      0.0    -20.0    400.0      1.0
     178 2002 12 21 12 15 17 673  5.2565    122.76754    265.41288    154.22500    -25.00000     25.00000     -6.59914    150.0    150.0      0.0      0.0    -20.0    400.0      1.0
     179 2002 12 21 12 15 22 930  5.2569    122.32454    265.52007    154.12575    -25.00000     25.00000     -6.67988    150.0    150.0      0.0      0.0    -20.0    400.0      1.0
     180 2002 12 21 12 15 28 187  5.2574    122.06136    265.58825    154.02519    -25.00000     25.00000     -6.71599    150.0    150.0      0.0      0.0    -20.0    400.0      1.0
     181 2002 12 21 12 15 33 445  5.2575    121.79419    265.65642    153.92229    -25.00000     25.00000     -6.74441    150.0    150.0      0.0      0.0    -20.0    400.0      1.0
     182 2002 12 21 12 15 38 703  5.2582    121.40738    265.72667    153.82155    -25.00000     25.00000     -6.80489    150.0    150.0      0.0      0.0    -20.0    400.0      1.0
     183 2002 12 21 12 15 43 963  5.2596    121.17258    265.78825    153.72241    -25.00000     25.00000     -6.86279    150.0    150.0      0.0      0.0    -20.0    400.0      1.0
     184 2002 12 21 12 15 49 222  5.2596    120.88280    265.83909    153.62578    -25.00000     25.00000     -6.92029    150.0    150.0      0.0      0.0    -20.0    400.0      1.0
     185 2002 12 21 12 15 54 481  5.2586    120.61074    265.88573    153.52816    -25.00000     25.00000     -7.02694    150.0    150.0      0.0      0.0    -20.0    400.0      1.0
     186 2002 12 21 12 15 59 741  5.2596    120.27011    265.92653    153.43162    -25.00000     25.00000     -7.11784    150.0    150.0      0.0      0.0    -20.0    400.0      1.0
     187 2002 12 21 12 16  5   0  5.2591    120.07558    265.95377    153.33531    -25.00000     25.00000     -7.17155    150.0    150.0      0.0      0.0    -20.0    400.0      1.0
     188 2002 12 21 12 16 10 260  5.2600    119.71642    265.96522    153.24405    -25.00000     25.00000     -7.23161    150.0    150.0      0.0      0.0    -20.0    400.0      1.0
     189 2002 12 21 12 16 15 520  5.2599    119.30524    265.96513    153.15702    -25.00000     25.00000     -7.32078    150.0    150.0      0.0      0.0    -20.0    400.0      1.0
     190 2002 12 21 12 16 20 779  5.2595    119.00839    265.97870    153.07422    -25.00000     25.00000     -7.38957    150.0    150.0      0.0      0.0    -20.0    400.0      1.0
     191 2002 12 21 12 16 26  39  5.2598    119.36034    266.01200    152.99313    -25.00000     25.00000     -7.42620    150.0    150.0      0.0      0.0    -20.0    400.0      1.0
     192 2002 12 21 12 16 31 299  5.2596    119.00988    266.04747    152.91350    -25.00000     25.00000     -7.43432    150.0    150.0      0.0      0.0    -20.0    400.0      1.0
     193 2002 12 21 12 16 36 558  5.2597    118.86160    266.07947    152.83496    -25.00000     25.00000     -7.42462    150.0    150.0      0.0      0.0    -20.0    400.0      1.0
     194 2002 12 21 12 16 41 819  5.2602    119.31172    266.11333    152.75789    -25.00000     25.00000     -7.39427    150.0    150.0      0.0      0.0    -20.0    400.0      1.0
     195 2002 12 21 12 16 47  72  5.2538    119.32916    266.14846    152.68358    -25.00000     25.00000     -7.35124    150.0    150.0      0.0      0.0    -20.0    400.0      1.0
     196 2002 12 21 12 16 52 299  5.2268    119.28282    266.18132    152.61476    -25.00000     25.00000     -7.31295    150.0    150.0      0.0      0.0    -20.0    400.0      1.0
     197 2002 12 21 12 16 57 521  5.2219    119.68334    266.20720    152.54825    -25.00000     25.00000     -7.31463    150.0    150.0      0.0      0.0    -20.0    400.0      1.0
     198 2002 12 21 12 17  2 717  5.1965    120.18626    266.21553    152.48390    -25.00000     25.00000     -7.29831    150.0    150.0      0.0      0.0    -20.0    400.0      1.0
     199 2002 12 21 12 17  7 909  5.1919    120.26732    266.20287    152.42104    -25.00000     25.00000     -7.27332    150.0    150.0      0.0      0.0    -20.0    400.0      1.0
     200 2002 12 21 12 17 13  86  5.1763    119.39979    266.18983    152.36414    -25.00000     25.00000     -7.29859    150.0    150.0      0.0      0.0    -20.0    400.0      1.0
     201 2002 12 21 12 17 18 263  5.1777    118.42989    266.19501    152.31062    -25.00000     25.00000     -7.31894    150.0    150.0      0.0      0.0    -20.0    400.0      1.0
     202 2002 12 21 12 17 23 423  5.1600    117.79990    266.21289    152.26433    -25.00000     25.00000     -7.32363    150.0    150.0      0.0      0.0    -20.0    400.0      1.0
     203 2002 12 21 12 17 28 580  5.1566    117.56152    266.23739    152.22069    -25.00000     25.00000     -7.34726    150.0    150.0      0.0      0.0    -20.0    400.0      1.0
     204 2002 12 21 12 17 33 730  5.1503    116.74699    266.26999    152.18329    -25.00000     25.00000     -7.37656    150.0    150.0      0.0      0.0    -20.0    400.0      1.0
     205 2002 12 21 12 17 38 880  5.1494    116.06169    266.30182    152.14681    -25.00000     25.00000     -7.38017    150.0    150.0      0.0      0.0    -20.0    400.0      1.0
     206 2002 12 21 12 17 44  29  5.1491    115.84831    266.32746    152.11343    -25.00000     25.00000     -7.40093    150.0    150.0      0.0      0.0    -20.0    400.0      1.0
     207 2002 12 21 12 17 49 166  5.1374    115.62540    266.34609    152.08154    -25.00000     25.00000     -7.39192    150.0    150.0      0.0      0.0    -20.0    400.0      1.0
     208 2002 12 21 12 17 54 318  5.1517    114.93773    266.36308    152.05659    -25.00000     25.00000     -7.42999    150.0    150.0      0.0      0.0    -20.0    400.0      1.0
     209 2002 12 21 12 17 59 462  5.1444    114.74723    266.38088    152.03865    -25.00000     25.00000     -7.44286    150.0    150.0      0.0      0.0    -20.0    400.0      1.0
     210 2002 12 21 12 18  4 617  5.1550    114.54529    266.39964    152.02528    -25.00000     25.00000     -7.45350    150.0    150.0      0.0      0.0    -20.0    400.0      1.0
     211 2002 12 21 12 18  9 759  5.1414    114.25968    266.41803    152.01572    -25.00000     25.00000     -7.48984    150.0    150.0      0.0      0.0    -20.0    400.0      1.0
     212 2002 12 21 12 18 14 912  5.1532    114.08954    266.43290    152.00235    -25.00000     25.00000     -7.52437    150.0    150.0      0.0      0.0    -20.0    400.0      1.0
     213 2002 12 21 12 18 20  56  5.1443    113.84202    266.43329    151.99509    -25.00000     25.00000     -7.57078    150.0    150.0      0.0      0.0    -20.0    400.0      1.0
     214 2002 12 21 12 18 25 214  5.1581    113.65442    266.42687    151.99904    -25.00000     25.00000     -7.59268    150.0    150.0      0.0      0.0    -20.0    400.0      1.0
     215 2002 12 21 12 18 30 378  5.1640    113.71164    266.42545    152.00764    -25.00000     25.00000     -7.62167    150.0    150.0      0.0      0.0    -20.0    400.0      1.0
     216 2002 12 21 12 18 35 550  5.1714    113.45492    266.43668    152.02447    -25.00000     25.00000     -7.65062    150.0    150.0      0.0      0.0    -20.0    400.0      1.0
     217 2002 12 21 12 18 40 701  5.1515    113.25195    266.45737    152.03728    -25.00000     25.00000     -7.66743    150.0    150.0      0.0      0.0    -20.0    400.0      1.0
     218 2002 12 21 12 18 45 874  5.1732    113.28692    266.48477    152.04957    -25.00000     25.00000     -7.73167    150.0    150.0      0.0      0.0    -20.0    400.0      1.0
     219 2002 12 21 12 18 51  50  5.1753    113.35099    266.51160    152.06265    -25.00000     25.00000     -7.81899    150.0    150.0      0.0      0.0    -20.0    400.0      1.0
     220 2002 12 21 12 18 56 224  5.1742    113.10185    266.54062    152.09072    -25.00000     25.00000     -7.83959    150.0    150.0      0.0      0.0    -20.0    400.0      1.0
     221 2002 12 21 12 19  1 392  5.1676    113.10730    266.57021    152.12391    -25.00000     25.00000     -7.81804    150.0    150.0      0.0      0.0    -20.0    400.0      1.0
     222 2002 12 21 12 19  6 560  5.1682    113.26455    266.60274    152.16022    -25.00000     25.00000     -7.79557    150.0    150.0      0.0      0.0    -20.0    400.0      1.0
     223 2002 12 21 12 19 11 732  5.1725    113.25608    266.63270    152.18643    -25.00000     25.00000     -7.78474    150.0    150.0      0.0      0.0    -20.0    400.0      1.0
     224 2002 12 21 12 19 16 891  5.1582    113.08822    266.65358    152.19911    -25.00000     25.00000     -7.76081    150.0    150.0      0.0      0.0    -20.0    400.0      1.0
     225 2002 12 21 12 19 22  58  5.1674    112.90728    266.66796    152.21588    -25.00000     25.00000     -7.78363    150.0    150.0      0.0      0.0    -20.0    400.0      1.0
     226 2002 12 21 12 19 27 211  5.1528    112.78013    266.67711    152.24264    -25.00000     25.00000     -7.81401    150.0    150.0      0.0      0.0    -20.0    400.0      1.0
     227 2002 12 21 12 19 32 366  5.1557    112.63429    266.67452    152.27713    -25.00000     25.00000     -7.79406    150.0    150.0      0.0      0.0    -20.0    400.0      1.0
     228 2002 12 21 12 19 37 521  5.1549    112.38611    266.67018    152.30576    -25.00000     25.00000     -7.78234    150.0    150.0      0.0      0.0    -20.0    400.0      1.0
     229 2002 12 21 12 19 42 669  5.1479    112.15714    266.67144    152.32901    -25.00000     25.00000     -7.77347    150.0    150.0      0.0      0.0    -20.0    400.0      1.0
     230 2002 12 21 12 19 47 828  5.1585    111.56918    266.67617    152.34942    -25.00000     25.00000     -7.83365    150.0    150.0      0.0      0.0    -20.0    400.0      1.0
     231 2002 12 21 12 19 52 970  5.1424    111.12596    266.68324    152.37471    -25.00000     25.00000     -7.85579    150.0    150.0      0.0      0.0    -20.0    400.0      1.0
     232 2002 12 21 12 19 58 119  5.1489    111.08985    266.69474    152.40011    -25.00000     25.00000     -7.89735    150.0    150.0      0.0      0.0    -20.0    400.0      1.0
     233 2002 12 21 12 20  3 252  5.1330    110.49063    266.71023    152.42563    -25.00000     25.00000     -7.98673    150.0    150.0      0.0      0.0    -20.0    400.0      1.0
     234 2002 12 21 12 20  8 397  5.1449    110.15698    266.72777    152.43926    -25.00000     25.00000     -8.03455    150.0    150.0      0.0      0.0    -20.0    400.0      1.0
     235 2002 12 21 12 20 13 532  5.1353    110.10081    266.74927    152.45830    -25.00000     25.00000     -8.05362    150.0    150.0      0.0      0.0    -20.0    400.0      1.0
     236 2002 12 21 12 20 18 681  5.1490    109.78537    266.77547    152.46963    -25.00000     25.00000     -8.07842    150.0    150.0      0.0      0.0    -20.0    400.0      1.0
     237 2002 12 21 12 20 23 834  5.1526    109.49493    266.80406    152.49401    -25.00000     25.00000     -8.09111    150.0    150.0      0.0      0.0    -20.0    400.0      1.0
     238 2002 12 21 12 20 28 990  5.1557    109.36795    266.82774    152.51291    -25.00000     25.00000     -8.11077    150.0    150.0      0.0      0.0    -20.0    400.0      1.0
     239 2002 12 21 12 20 34 155  5.1652    109.15083    266.85010    152.53002    -25.00000     25.00000     -8.13092    150.0    150.0      0.0      0.0    -20.0    400.0      1.0
     240 2002 12 21 12 20 39 303  5.1484    108.94704    266.86248    152.56136    -25.00000     25.00000     -8.20047    150.0    150.0      0.0      0.0    -20.0    400.0      1.0
     241 2002 12 21 12 20 44 467  5.1635    108.79968    266.86967    152.58211    -25.00000     25.00000     -8.32740    150.0    150.0      0.0      0.0    -20.0    400.0      1.0
     242 2002 12 21 12 20 49 622  5.1557    108.71334    266.87825    152.62079    -25.00000     25.00000     -8.37911    150.0    150.0      0.0      0.0    -20.0    400.0      1.0
     243 2002 12 21 12 20 54 772  5.1497    108.55097    266.88956    152.65483    -25.00000     25.00000     -8.48694    150.0    150.0      0.0      0.0    -20.0    400.0      1.0
     244 2002 12 21 12 20 59 914  5.1422    108.29219    266.90215    152.68371    -25.00000     25.00000     -8.54147    150.0    150.0      0.0      0.0    -20.0    400.0      1.0
     245 2002 12 21 12 21  5  62  5.1473    108.11597    266.92242    152.71895    -25.00000     25.00000     -8.58013    150.0    150.0      0.0      0.0    -20.0    400.0      1.0
     246 2002 12 21 12 21 10 197  5.1354    108.01301    266.94898    152.73364    -25.00000     25.00000     -8.67040    150.0    150.0      0.0      0.0    -20.0    400.0      1.0
     247 2002 12 21 12 21 15 310  5.1128    107.83973    266.98116    152.76698    -25.00000     25.00000     -8.72150    150.0    150.0      0.0      0.0    -20.0    400.0      1.0
     248 2002 12 21 12 21 20 422  5.1123    107.65040    267.01979    152.80160    -25.00000     25.00000     -8.70797    150.0    150.0      0.0      0.0    -20.0    400.0      1.0
     249 2002 12 21 12 21 25 524  5.1017    107.41287    267.06515    152.83426    -25.00000     25.00000     -8.75849    150.0    150.0      0.0      0.0    -20.0    400.0      1.0
     250 2002 12 21 12 21 30 617  5.0937    107.10766    267.10386    152.87909    -25.00000     25.00000     -8.84598    150.0    150.0      0.0      0.0    -20.0    400.0      1.0
     251 2002 12 21 12 21 35 704  5.0865    107.02927    267.13491    152.93007    -25.00000     25.00000     -8.90770    150.0    150.0      0.0      0.0    -20.0    400.0      1.0
     252 2002 12 21 12 21 40 785  5.0808    106.62252    267.15664    152.98134    -25.00000     25.00000     -9.06939    150.0    150.0      0.0      0.0    -20.0    400.0      1.0
     253 2002 12 21 12 21 45 859  5.0741    106.36040    267.17061    153.03482    -25.00000     25.00000     -9.26111    150.0    150.0      0.0      0.0    -20.0    400.0      1.0
     254 2002 12 21 12 21 50 901  5.0428    106.08570    267.18025    153.09738    -25.00000     25.00000     -9.25961    150.0    150.0      0.0      0.0    -20.0    400.0      1.0
     255 2002 12 21 12 21 55 965  5.0634    105.79021    267.19443    153.15128    -25.00000     25.00000     -9.37157    150.0    150.0      0.0      0.0    -20.0    400.0      1.0
     256 2002 12 21 12 22  1  20  5.0552    105.48057    267.21860    153.21550    -25.00000     25.00000     -9.43858    150.0    150.0      0.0      0.0    -20.0    400.0      1.0
     257 2002 12 21 12 22  6  56  5.0358    105.25203    267.25384    153.27991    -25.00000     25.00000     -9.40339    150.0    150.0      0.0      0.0    -20.0    400.0      1.0
     258 2002 12 21 12 22 11  81  5.0247    104.98336    267.30961    153.32499    -25.00000     25.00000     -9.33736    150.0    150.0      0.0      0.0    -20.0    400.0      1.0
     259 2002 12 21 12 22 16 113  5.0329    104.73300    267.37000    153.36186    -25.00000     25.00000     -9.24888    150.0    150.0      0.0      0.0    -20.0    400.0      1.0
     260 2002 12 21 12 22 21 149  5.0359    104.74077    267.41971    153.35630    -25.00000     25.00000     -9.13095    150.0    150.0      0.0      0.0    -20.0    400.0      1.0
     261 2002 12 21 12 22 26 197  5.0474    104.44598    267.46524    153.34516    -25.00000     25.00000     -9.05804    150.0    150.0      0.0      0.0    -20.0    400.0      1.0
     262 2002 12 21 12 22 31 222  5.0249    104.18719    267.50271    153.32668    -25.00000     25.00000     -9.04047    150.0    150.0      0.0      0.0    -20.0    400.0      1.0
     263 2002 12 21 12 22 36 260  5.0383    104.04829    267.52769    153.30086    -25.00000     25.00000     -8.93841    150.0    150.0      0.0      0.0    -20.0    400.0      1.0
     264 2002 12 21 12 22 41 273  5.0126    104.34537    267.54981    153.28910    -25.00000     25.00000     -8.79547    150.0    150.0      0.0      0.0    -20.0    400.0      1.0
     265 2002 12 21 12 22 46 295  5.0228    104.10470    267.57129    153.27596    -25.00000     25.00000     -8.67340    150.0    150.0      0.0      0.0    -20.0    400.0      1.0
     266 2002 12 21 12 22 51 297  5.0017    103.92195    267.59853    153.27152    -25.00000     25.00000     -8.51788    150.0    150.0      0.0      0.0    -20.0    400.0      1.0
     267 2002 12 21 12 22 56 303  5.0063    104.14299    267.63542    153.27829    -25.00000     25.00000     -8.34574    150.0    150.0      0.0      0.0    -20.0    400.0      1.0
     268 2002 12 21 12 23  1 296  4.9928    104.27787    267.67045    153.30261    -25.00000     25.00000     -8.20719    150.0    150.0      0.0      0.0    -20.0    400.0      1.0
     269 2002 12 21 12 23  6 286  4.9900    104.07236    267.69726    153.31678    -25.00000     25.00000     -8.09502    150.0    150.0      0.0      0.0    -20.0    400.0      1.0
     270 2002 12 21 12 23 11 269  4.9829    104.10846    267.72349    153.32974    -25.00000     25.00000     -7.95149    150.0    150.0      0.0      0.0    -20.0    400.0      1.0
     271 2002 12 21 12 23 16 244  4.9746    104.63772    267.75087    153.34980    -25.00000     25.00000     -7.89654    150.0    150.0      0.0      0.0    -20.0    400.0      1.0
     272 2002 12 21 12 23 21 219  4.9749    104.59361    267.76955    153.37590    -25.00000     25.00000     -7.84210    150.0    150.0      0.0      0.0    -20.0    400.0      1.0
     273 2002 12 21 12 23 26 179  4.9606    104.56304    267.79283    153.40187    -25.00000     25.00000     -7.69197    150.0    150.0      0.0      0.0    -20.0    400.0      1.0
     274 2002 12 21 12 23 31 143  4.9635    104.79490    267.81461    153.44921    -25.00000     25.00000     -7.58442    150.0    150.0      0.0      0.0    -20.0    400.0      1.0
     275 2002 12 21 12 23 36  95  4.9524    105.18665    267.83904    153.49345    -25.00000     25.00000     -7.43005    150.0    150.0      0.0      0.0    -20.0    400.0      1.0
     276 2002 12 21 12 23 41  53  4.9576    105.16371    267.86877    153.53657    -25.00000     25.00000     -7.23274    150.0    150.0      0.0      0.0    -20.0    400.0      1.0
     277 2002 12 21 12 23 45 995  4.9422    104.52420    267.88206    153.56849    -25.00000     25.00000     -7.02387    150.0    150.0      0.0      0.0    -20.0    400.0      1.0
     278 2002 12 21 12 23 50 947  4.9517    104.99097    267.89461    153.57262    -25.00000     25.00000     -6.80914    150.0    150.0      0.0      0.0    -20.0    400.0      1.0
     279 2002 12 21 12 23 55 891  4.9441    105.32121    267.91586    153.55936    -25.00000     25.00000     -6.54686    150.0    150.0      0.0      0.0    -20.0    400.0      1.0
     280 2002 12 21 12 24  0 839  4.9488    104.47111    267.92878    153.53183    -25.00000     25.00000     -6.33288    150.0    150.0      0.0      0.0    -20.0    400.0      1.0
     281 2002 12 21 12 24  5 786  4.9466    103.49325    267.94503    153.50923    -25.00000     25.00000     -6.16372    150.0    150.0      0.0      0.0    -20.0    400.0      1.0
     282 2002 12 21 12 24 10 731  4.9446    103.57973    267.95758    153.47872    -25.00000     25.00000     -5.99141    150.0    150.0      0.0      0.0    -20.0    400.0      1.0
     283 2002 12 21 12 24 15 669  4.9378    102.81069    267.96551    153.43176    -25.00000     25.00000     -5.81733    150.0    150.0      0.0      0.0    -20.0    400.0      1.0
     284 2002 12 21 12 24 20 612  4.9430    101.64801    267.98259    153.35617    -25.00000     25.00000     -5.64988    150.0    150.0      0.0      0.0    -20.0    400.0      1.0
     285 2002 12 21 12 24 25 556  4.9447    101.16358    268.00430    153.25649    -25.00000     25.00000     -5.47620    150.0    150.0      0.0      0.0    -20.0    400.0      1.0
     286 2002 12 21 12 24 30 474  4.9176    101.08424    268.02332    153.14304    -25.00000     25.00000     -5.37149    150.0    150.0      0.0      0.0    -20.0    400.0      1.0
     287 2002 12 21 12 24 35 396  4.9224    100.95980    268.03771    153.02556    -25.00000     25.00000     -5.31686    150.0    150.0      0.0      0.0    -20.0    400.0      1.0
     288 2002 12 21 12 24 40 326  4.9294    100.44899    268.05511    152.90933    -25.00000     25.00000     -5.25323    150.0    150.0      0.0      0.0    -20.0    400.0      1.0
     289 2002 12 21 12 24 45 257  4.9315    100.23731    268.07021    152.78650    -25.00000     25.00000     -5.25037    150.0    150.0      0.0      0.0    -20.0    400.0      1.0
     290 2002 12 21 12 24 50 190  4.9332    100.09105    268.08398    152.66715    -25.00000     25.00000     -5.27251    150.0    150.0      0.0      0.0    -20.0    400.0      1.0
     291 2002 12 21 12 24 55 127  4.9363    100.32814    268.10225    152.54052    -25.00000     25.00000     -5.28765    150.0    150.0      0.0      0.0    -20.0    400.0      1.0
     292 2002 12 21 12 25  0  60  4.9329    100.00871    268.11743    152.41338    -25.00000     25.00000     -5.24972    150.0    150.0      0.0      0.0    -20.0    400.0      1.0
     293 2002 12 21 12 25  4 991  4.9318     99.66415    268.13282    152.28467    -25.00000     25.00000     -5.34971    150.0    150.0      0.0      0.0    -20.0    400.0      1.0
     294 2002 12 21 12 25  9 932  4.9405     99.83867    268.15300    152.15293    -25.00000     25.00000     -5.37405    150.0    150.0      0.0      0.0    -20.0    400.0      1.0
     295 2002 12 21 12 25 14 876  4.9438    100.15649    268.16882    152.02808    -25.00000     25.00000     -5.41390    150.0    150.0      0.0      0.0    -20.0    400.0      1.0
     296 2002 12 21 12 25 19 829  4.9531     99.68806    268.17533    151.89851    -25.00000     25.00000     -5.51205    150.0    150.0      0.0      0.0    -20.0    400.0      1.0
     297 2002 12 21 12 25 24 793  4.9642     99.76795    268.18268    151.77881    -25.00000     25.00000     -5.59435    150.0    150.0      0.0      0.0    -20.0    400.0      1.0
     298 2002 12 21 12 25 29 770  4.9767    100.68395    268.18720    151.66171    -25.00000     25.00000     -5.73445    150.0    150.0      0.0      0.0    -20.0    400.0      1.0
     299 2002 12 21 12 25 34 760  4.9904    100.26060    268.18486    151.54612    -25.00000     25.00000     -5.83881    150.0    150.0      0.0      0.0    -20.0    400.0      1.0
     300 2002 12 21 12 25 39 765  5.0052    100.36818    268.18573    151.44683    -25.00000     25.00000     -6.00886    150.0    150.0      0.0      0.0    -20.0    400.0      1.0
     301 2002 12 21 12 25 44 786  5.0209    101.15366    268.18738    151.34201    -25.00000     25.00000     -6.13352    150.0    150.0      0.0      0.0    -20.0    400.0      1.0
     302 2002 12 21 12 25 49 824  5.0380    101.45318    268.18960    151.25321    -25.00000     25.00000     -6.28784    150.0    150.0      0.0      0.0    -20.0    400.0      1.0
     303 2002 12 21 12 25 54 862  5.0382    101.74154    268.19522    151.17230    -25.00000     25.00000     -6.37510    150.0    150.0      0.0      0.0    -20.0    400.0      1.0
     304 2002 12 21 12 25 59 924  5.0617    102.46588    268.19764    151.09356    -25.00000     25.00000     -6.56570    150.0    150.0      0.0      0.0    -20.0    400.0      1.0
     305 2002 12 21 12 26  4 985  5.0606    103.27620    268.18976    151.03150    -25.00000     25.00000     -6.66523    150.0    150.0      0.0      0.0    -20.0    400.0      1.0
     306 2002 12 21 12 26 10  25  5.0407    103.94007    268.18034    150.97527    -25.00000     25.00000     -6.78765    150.0    150.0      0.0      0.0    -20.0    400.0      1.0
     307 2002 12 21 12 26 15  92  5.0668    104.70122    268.17808    150.92224    -25.00000     25.00000     -6.93985    150.0    150.0      0.0      0.0    -20.0    400.0      1.0
     308 2002 12 21 12 26 20 148  5.0555    104.03018    268.17556    150.89022    -25.00000     25.00000     -7.11305    150.0    150.0      0.0      0.0    -20.0    400.0      1.0
     309 2002 12 21 12 26 25 194  5.0461    103.70900    268.17632    150.85595    -25.00000     25.00000     -7.22210    150.0    150.0      0.0      0.0    -20.0    400.0      1.0
     310 2002 12 21 12 26 30 236  5.0422    103.14022    268.18040    150.83710    -25.00000     25.00000     -7.37183    150.0    150.0      0.0      0.0    -20.0    400.0      1.0
     311 2002 12 21 12 26 35 265  5.0292    102.08248    268.18423    150.83499    -25.00000     25.00000     -7.40121    150.0    150.0      0.0      0.0    -20.0    400.0      1.0
     312 2002 12 21 12 26 40 294  5.0292    101.76258    268.19074    150.83088    -25.00000     25.00000     -7.48087    150.0    150.0      0.0      0.0    -20.0    400.0      1.0
     313 2002 12 21 12 26 45 310  5.0160    101.40582    268.20433    150.84258    -25.00000     25.00000     -7.48387    150.0    150.0      0.0      0.0    -20.0    400.0      1.0
     314 2002 12 21 12 26 50 333  5.0233    100.87879    268.22542    150.87103    -25.00000     25.00000     -7.42808    150.0    150.0      0.0      0.0    -20.0    400.0      1.0
     315 2002 12 21 12 26 55 350  5.0165    100.71822    268.25436    150.89623    -25.00000     25.00000     -7.33815    150.0    150.0      0.0      0.0    -20.0    400.0      1.0
     316 2002 12 21 12 27  0 362  5.0124    100.75321    268.28704    150.93789    -25.00000     25.00000     -7.35385    150.0    150.0      0.0      0.0    -20.0    400.0      1.0
     317 2002 12 21 12 27  5 374  5.0118    100.20376    268.30250    150.98736    -25.00000     25.00000     -7.23099    150.0    150.0      0.0      0.0    -20.0    400.0      1.0
     318 2002 12 21 12 27 10 383  5.0084     99.69498    268.29597    151.03715    -25.00000     25.00000     -7.19351    150.0    150.0      0.0      0.0    -20.0    400.0      1.0
     319 2002 12 21 12 27 15 404  5.0210     99.24720    268.26000    151.10189    -25.00000     25.00000     -7.09302    150.0    150.0      0.0      0.0    -20.0    400.0      1.0
     320 2002 12 21 12 27 20 405  5.0014     98.89222    268.21621    151.17191    -25.00000     25.00000     -6.92294    150.0    150.0      0.0      0.0    -20.0    400.0      1.0
     321 2002 12 21 12 27 25 405  4.9995     98.49547    268.18393    151.23953    -25.00000     25.00000     -6.84336    150.0    150.0      0.0      0.0    -20.0    400.0      1.0
     322 2002 12 21 12 27 30 393  4.9885     98.06243    268.16942    151.31825    -25.00000     25.00000     -6.67579    150.0    150.0      0.0      0.0    -20.0    400.0      1.0
     323 2002 12 21 12 27 35 369  4.9755     97.74070    268.17771    151.39464    -25.00000     25.00000     -6.50917    150.0    150.0      0.0      0.0    -20.0    400.0      1.0
     324 2002 12 21 12 27 40 334  4.9653     97.40693    268.19618    151.47293    -25.00000     25.00000     -6.34197    150.0    150.0      0.0      0.0    -20.0    400.0      1.0
     325 2002 12 21 12 27 45 289  4.9556     97.03566    268.20944    151.53186    -25.00000     25.00000     -6.14542    150.0    150.0      0.0      0.0    -20.0    400.0      1.0
     326 2002 12 21 12 27 50 234  4.9447     96.66493    268.22013    151.56683    -25.00000     25.00000     -5.99284    150.0    150.0      0.0      0.0    -20.0    400.0      1.0
     327 2002 12 21 12 27 55 170  4.9356     96.30319    268.23378    151.59956    -25.00000     25.00000     -5.80767    150.0    150.0      0.0      0.0    -20.0    400.0      1.0
     328 2002 12 21 12 28  0  96  4.9268     95.94217    268.23498    151.64295    -25.00000     25.00000     -5.66903    150.0    150.0      0.0      0.0    -20.0    400.0      1.0
     329 2002 12 21 12 28  5  15  4.9191     95.59184    268.22966    151.70168    -25.00000     25.00000     -5.46719    150.0    150.0      0.0      0.0    -20.0    400.0      1.0
     330 2002 12 21 12 28  9 936  4.9204     95.24778    268.22843    151.77180    -25.00000     25.00000     -5.38575    150.0    150.0      0.0      0.0    -20.0    400.0      1.0
     331 2002 12 21 12 28 14 837  4.9014     94.91256    268.22317    151.83279    -25.00000     25.00000     -5.32066    150.0    150.0      0.0      0.0    -20.0    400.0      1.0
     332 2002 12 21 12 28 19 756  4.9188     94.59988    268.22784    151.87610    -25.00000     25.00000     -5.16375    150.0    150.0      0.0      0.0    -20.0    400.0      1.0
     333 2002 12 21 12 28 24 647  4.8907     94.32376    268.24297    151.89817    -25.00000     25.00000     -5.06731    150.0    150.0      0.0      0.0    -20.0    400.0      1.0
     334 2002 12 21 12 28 29 557  4.9103     94.08561    268.25530    151.91684    -25.00000     25.00000     -5.03023    150.0    150.0      0.0      0.0    -20.0    400.0      1.0
     335 2002 12 21 12 28 34 448  4.8911     93.85495    268.27339    151.95475    -25.00000     25.00000     -5.07727    150.0    150.0      0.0      0.0    -20.0    400.0      1.0
     336 2002 12 21 12 28 39 352  4.9039     93.61815    268.30151    152.00331    -25.00000     25.00000     -5.15994    150.0    150.0      0.0      0.0    -20.0    400.0      1.0
     337 2002 12 21 12 28 44 242  4.8902     93.37914    268.32564    152.06866    -25.00000     25.00000     -5.15784    150.0    150.0      0.0      0.0    -20.0    400.0      1.0
     338 2002 12 21 12 28 49 142  4.8996     93.14370    268.35052    152.10295    -25.00000     25.00000     -5.18675    150.0    150.0      0.0      0.0    -20.0    400.0      1.0
     339 2002 12 21 12 28 54  40  4.8979     92.95896    268.35552    152.15493    -25.00000     25.00000     -5.21673    150.0    150.0      0.0      0.0    -20.0    400.0      1.0
     340 2002 12 21 12 28 58 934  4.8940     92.76591    268.35280    152.22615    -25.00000     25.00000     -5.36065    150.0    150.0      0.0      0.0    -20.0    400.0      1.0
     341 2002 12 21 12 29  3 826  4.8920     92.58258    268.34141    152.28024    -25.00000     25.00000     -5.48161    150.0    150.0      0.0      0.0    -20.0    400.0      1.0
     342 2002 12 21 12 29  8 700  4.8736     92.35389    268.33815    152.31518    -25.00000     25.00000     -5.47030    150.0    150.0      0.0      0.0    -20.0    400.0      1.0
     343 2002 12 21 12 29 13 579  4.8796     92.11428    268.34969    152.33800    -25.00000     25.00000     -5.50716    150.0    150.0      0.0      0.0    -20.0    400.0      1.0
     344 2002 12 21 12 29 18 446  4.8673     91.88571    268.36879    152.34746    -25.00000     25.00000     -5.50021    150.0    150.0      0.0      0.0    -20.0    400.0      1.0
     345 2002 12 21 12 29 23 311  4.8642     91.71803    268.40270    152.34429    -25.00000     25.00000     -5.51522    150.0    150.0      0.0      0.0    -20.0    400.0      1.0
     346 2002 12 21 12 29 28 183  4.8719     91.63065    268.43753    152.35710    -25.00000     25.00000     -5.54243    150.0    150.0      0.0      0.0    -20.0    400.0      1.0
     347 2002 12 21 12 29 33  12  4.8295     91.68171    268.46633    152.36649    -25.00000     25.00000     -5.55065    150.0    150.0      0.0      0.0    -20.0    400.0      1.0
     348 2002 12 21 12 29 37 869  4.8564     91.50159    268.48417    152.38143    -25.00000     25.00000     -5.64906    150.0    150.0      0.0      0.0    -20.0    400.0      1.0
     349 2002 12 21 12 29 42 712  4.8437     91.35765    268.48985    152.41462    -25.00000     25.00000     -5.74034    150.0    150.0      0.0      0.0    -20.0    400.0      1.0
     350 2002 12 21 12 29 47 528  4.8159     91.23511    268.48375    152.42091    -25.00000     25.00000     -5.88849    150.0    150.0      0.0      0.0    -20.0    400.0      1.0
     351 2002 12 21 12 29 52 385  4.8568     91.14408    268.48060    152.45284    -25.00000     25.00000     -5.99177    150.0    150.0      0.0      0.0    -20.0    400.0      1.0
     352 2002 12 21 12 29 57 212  4.8266     91.37395    268.49381    152.48812    -25.00000     25.00000     -6.17378    150.0    150.0      0.0      0.0    -20.0    400.0      1.0
     353 2002 12 21 12 30  2  12  4.8004     91.27394    268.52244    152.49760    -25.00000     25.00000     -6.27061    150.0    150.0      0.0      0.0    -20.0    400.0      1.0
     354 2002 12 21 12 30  6 860  4.8483     91.12144    268.56557    152.53488    -25.00000     25.00000     -6.40225    150.0    150.0      0.0      0.0    -20.0    400.0      1.0
     355 2002 12 21 12 30 11 676  4.8162     90.98715    268.67510    152.56786    -25.00000     25.00000     -6.52549    150.0    150.0      0.0      0.0    -20.0    400.0      1.0
     356 2002 12 21 12 30 16 523  4.8466     91.19164    268.74801    152.57814    -25.00000     25.00000     -6.66344    150.0    150.0      0.0      0.0    -20.0    400.0      1.0
     357 2002 12 21 12 30 21 357  4.8335     91.57593    268.79821    152.60858    -25.00000     25.00000     -6.77253    150.0    150.0      0.0      0.0    -20.0    400.0      1.0
     358 2002 12 21 12 30 26 177  4.8206     91.52892    268.82713    152.62189    -25.00000     25.00000     -6.91740    150.0    150.0      0.0      0.0    -20.0    400.0      1.0
     359 2002 12 21 12 30 31  11  4.8342     91.45116    268.84081    152.62859    -25.00000     25.00000     -7.02704    150.0    150.0      0.0      0.0    -20.0    400.0      1.0
     360 2002 12 21 12 30 35 827  4.8155     91.56992    268.84574    152.64164    -25.00000     25.00000     -7.15725    150.0    150.0      0.0      0.0    -20.0    400.0      1.0
     361 2002 12 21 12 30 40 643  4.8162     91.92796    268.85615    152.64302    -25.00000     25.00000     -7.23572    150.0    150.0      0.0      0.0    -20.0    400.0      1.0
     362 2002 12 21 12 30 45 468  4.8245     92.47629    268.87778    152.64058    -25.00000     25.00000     -7.35128    150.0    150.0      0.0      0.0    -20.0    400.0      1.0
     363 2002 12 21 12 30 50 271  4.8036     92.61595    268.91323    152.64636    -25.00000     25.00000     -7.47321    150.0    150.0      0.0      0.0    -20.0    400.0      1.0
     364 2002 12 21 12 30 55  93  4.8222     92.60444    268.95459    152.63088    -25.00000     25.00000     -7.57866    150.0    150.0      0.0      0.0    -20.0    400.0      1.0
     365 2002 12 21 12 30 59 906  4.8128     92.74948    268.98494    152.62431    -25.00000     25.00000     -7.71841    150.0    150.0      0.0      0.0    -20.0    400.0      1.0
     366 2002 12 21 12 31  4 691  4.7853     92.98082    269.00159    152.63616    -25.00000     25.00000     -7.82115    150.0    150.0      0.0      0.0    -20.0    400.0      1.0
     367 2002 12 21 12 31  9 487  4.7961     93.29892    269.02475    152.63427    -25.00000     25.00000     -7.84117    150.0    150.0      0.0      0.0    -20.0    400.0      1.0
     368 2002 12 21 12 31 14 270  4.7824     93.65615    269.04106    152.60108    -25.00000     25.00000     -7.76010    150.0    150.0      0.0      0.0    -20.0    400.0      1.0
     369 2002 12 21 12 31 19  49  4.7788     93.74517    269.04899    152.57416    -25.00000     25.00000     -7.71388    150.0    150.0      0.0      0.0    -20.0    400.0      1.0
     370 2002 12 21 12 31 23 839  4.7901     93.85536    269.06219    152.50860    -25.00000     25.00000     -7.70406    150.0    150.0      0.0      0.0    -20.0    400.0      1.0
     371 2002 12 21 12 31 28 609  4.7701     93.76593    269.07476    152.44572    -25.00000     25.00000     -7.67693    150.0    150.0      0.0      0.0    -20.0    400.0      1.0
     372 2002 12 21 12 31 33 384  4.7751     93.73535    269.09764    152.39791    -25.00000     25.00000     -7.65116    150.0    150.0      0.0      0.0    -20.0    400.0      1.0
     373 2002 12 21 12 31 38 177  4.7925     93.78373    269.12417    152.31702    -25.00000     25.00000     -7.60659    150.0    150.0      0.0      0.0    -20.0    400.0      1.0
     374 2002 12 21 12 31 42 970  4.7939     93.78128    269.14496    152.27452    -25.00000     25.00000     -7.60026    150.0    150.0      0.0      0.0    -20.0    400.0      1.0
     375 2002 12 21 12 31 47 733  4.7628     94.03931    269.16902    152.21743    -25.00000     25.00000     -7.53047    150.0    150.0      0.0      0.0    -20.0    400.0      1.0
     376 2002 12 21 12 31 52 521  4.7881     94.07293    269.20035    152.15810    -25.00000     25.00000     -7.52921    150.0    150.0      0.0      0.0    -20.0    400.0      1.0
     377 2002 12 21 12 31 57 288  4.7665     92.97941    269.23010    152.12350    -25.00000     25.00000     -7.50791    150.0    150.0      0.0      0.0    -20.0    400.0      1.0
     378 2002 12 21 12 32  2  55  4.7668     91.98295    269.24623    152.05561    -25.00000     25.00000     -7.50152    150.0    150.0      0.0      0.0    -20.0    400.0      1.0
     379 2002 12 21 12 32  6 834  4.7794     91.49650    269.24050    152.01689    -25.00000     25.00000     -7.49198    150.0    150.0      0.0      0.0    -20.0    400.0      1.0
     380 2002 12 21 12 32 11 580  4.7461     91.26667    269.22510    151.98185    -25.00000     25.00000     -7.46724    150.0    150.0      0.0      0.0    -20.0    400.0      1.0
     381 2002 12 21 12 32 16 351  4.7712     90.32239    269.20774    151.92135    -25.00000     25.00000     -7.47008    150.0    150.0      0.0      0.0    -20.0    400.0      1.0
     382 2002 12 21 12 32 21 101  4.7494     89.41711    269.20298    151.89178    -25.00000     25.00000     -7.43690    150.0    150.0      0.0      0.0    -20.0    400.0      1.0
     383 2002 12 21 12 32 25 846  4.7452     88.98161    269.21132    151.84719    -25.00000     25.00000     -7.36777    150.0    150.0      0.0      0.0    -20.0    400.0      1.0
     384 2002 12 21 12 32 30 608  4.7616     88.78969    269.23898    151.79965    -25.00000     25.00000     -7.32784    150.0    150.0      0.0      0.0    -20.0    400.0      1.0
     385 2002 12 21 12 32 35 353  4.7450     88.59669    269.27920    151.75883    -25.00000     25.00000     -7.20382    150.0    150.0      0.0      0.0    -20.0    400.0      1.0
     386 2002 12 21 12 32 40  89  4.7366     88.10058    269.32423    151.71114    -25.00000     25.00000     -7.12371    150.0    150.0      0.0      0.0    -20.0    400.0      1.0
     387 2002 12 21 12 32 44 829  4.7401     87.80949    269.36601    151.66794    -25.00000     25.00000     -7.03178    150.0    150.0      0.0      0.0    -20.0    400.0      1.0
     388 2002 12 21 12 32 49 570  4.7409     87.55821    269.38354    151.61931    -25.00000     25.00000     -6.97087    150.0    150.0      0.0      0.0    -20.0    400.0      1.0
     389 2002 12 21 12 32 54 319  4.7484     87.27563    269.38409    151.56572    -25.00000     25.00000     -6.96649    150.0    150.0      0.0      0.0    -20.0    400.0      1.0
     390 2002 12 21 12 32 59  59  4.7401     87.05446    269.36567    151.53104    -25.00000     25.00000     -7.01984    150.0    150.0      0.0      0.0    -20.0    400.0      1.0
     391 2002 12 21 12 33  3 774  4.7155     86.90938    269.34178    151.49814    -25.00000     25.00000     -7.07514    150.0    150.0      0.0      0.0    -20.0    400.0      1.0
     392 2002 12 21 12 33  8 505  4.7313     86.81926    269.33176    151.47171    -25.00000     25.00000     -7.07016    150.0    150.0      0.0      0.0    -20.0    400.0      1.0
     393 2002 12 21 12 33 13 222  4.7165     86.72248    269.33422    151.42434    -25.00000     25.00000     -7.04881    150.0    150.0      0.0      0.0    -20.0    400.0      1.0
     394 2002 12 21 12 33 17 950  4.7283     86.64075    269.35195    151.37972    -25.00000     25.00000     -6.97572    150.0    150.0      0.0      0.0    -20.0    400.0      1.0
     395 2002 12 21 12 33 22 658  4.7083     86.59930    269.38419    151.31521    -25.00000     25.00000     -6.90808    150.0    150.0      0.0      0.0    -20.0    400.0      1.0
     396 2002 12 21 12 33 27 347  4.6882     86.50557    269.40866    151.23809    -25.00000     25.00000     -6.87199    150.0    150.0      0.0      0.0    -20.0    400.0      1.0
     397 2002 12 21 12 33 32  39  4.6919     86.30894    269.42292    151.15909    -25.00000     25.00000     -6.88582    150.0    150.0      0.0      0.0    -20.0    400.0      1.0
     398 2002 12 21 12 33 36 741  4.7027     86.05669    269.43379    151.06907    -25.00000     25.00000     -6.91274    150.0    150.0      0.0      0.0    -20.0    400.0      1.0
     399 2002 12 21 12 33 41 455  4.7141     85.85954    269.43781    150.99366    -25.00000     25.00000     -6.89002    150.0    150.0      0.0      0.0    -20.0    400.0      1.0
     400 2002 12 21 12 33 46 154  4.6984     85.61433    269.42445    150.92488    -25.00000     25.00000     -6.88488    150.0    150.0      0.0      0.0    -20.0    400.0      1.0
     401 2002 12 21 12 33 50 855  4.7012     85.38083    269.40893    150.85078    -25.00000     25.00000     -6.90756    150.0    150.0      0.0      0.0    -20.0    400.0      1.0
     402 2002 12 21 12 33 55 545  4.6900     85.21650    269.39218    150.79906    -25.00000     25.00000     -6.85764    150.0    150.0      0.0      0.0    -20.0    400.0      1.0
     403 2002 12 21 12 34  0 222  4.6776     85.08055    269.38982    150.72793    -25.00000     25.00000     -6.81225    150.0    150.0      0.0      0.0    -20.0    400.0      1.0
     404 2002 12 21 12 34  4 913  4.6910     84.96085    269.40480    150.67588    -25.00000     25.00000     -6.75541    150.0    150.0      0.0      0.0    -20.0    400.0      1.0
     405 2002 12 21 12 34  9 585  4.6715     84.84077    269.42241    150.63396    -25.00000     25.00000     -6.70953    150.0    150.0      0.0      0.0    -20.0    400.0      1.0
     406 2002 12 21 12 34 14 239  4.6537     84.80353    269.43116    150.57838    -25.00000     25.00000     -6.73669    150.0    150.0      0.0      0.0    -20.0    400.0      1.0
     407 2002 12 21 12 34 18 901  4.6627     84.76387    269.44575    150.54229    -25.00000     25.00000     -6.70143    150.0    150.0      0.0      0.0    -20.0    400.0      1.0
     408 2002 12 21 12 34 23 554  4.6523     84.58001    269.46337    150.50288    -25.00000     25.00000     -6.71687    150.0    150.0      0.0      0.0    -20.0    400.0      1.0
     409 2002 12 21 12 34 28 227  4.6731     84.40702    269.47420    150.46632    -25.00000     25.00000     -6.75075    150.0    150.0      0.0      0.0    -20.0    400.0      1.0
     410 2002 12 21 12 34 32 883  4.6560     84.25266    269.48163    150.43963    -25.00000     25.00000     -6.78655    150.0    150.0      0.0      0.0    -20.0    400.0      1.0
     411 2002 12 21 12 34 37 523  4.6405     84.12120    269.48168    150.40018    -25.00000     25.00000     -6.79870    150.0    150.0      0.0      0.0    -20.0    400.0      1.0
     412 2002 12 21 12 34 42 190  4.6673     84.00322    269.47082    150.37640    -25.00000     25.00000     -6.83538    150.0    150.0      0.0      0.0    -20.0    400.0      1.0
     413 2002 12 21 12 34 46 841  4.6501     83.84571    269.45985    150.35229    -25.00000     25.00000     -6.81996    150.0    150.0      0.0      0.0    -20.0    400.0      1.0
     414 2002 12 21 12 34 51 486  4.6450     83.65912    269.45744    150.32394    -25.00000     25.00000     -6.86260    150.0    150.0      0.0      0.0    -20.0    400.0      1.0
     415 2002 12 21 12 34 56 149  4.6631     83.47231    269.46384    150.29891    -25.00000     25.00000     -6.86635    150.0    150.0      0.0      0.0    -20.0    400.0      1.0
     416 2002 12 21 12 35  0 796  4.6478     83.28731    269.48003    150.27639    -25.00000     25.00000     -6.84860    150.0    150.0      0.0      0.0    -20.0    400.0      1.0
     417 2002 12 21 12 35  5 471  4.6741     83.11360    269.50359    150.25094    -25.00000     25.00000     -6.89348    150.0    150.0      0.0      0.0    -20.0    400.0      1.0
     418 2002 12 21 12 35 10 128  4.6575     82.96561    269.52691    150.23326    -25.00000     25.00000     -6.87621    150.0    150.0      0.0      0.0    -20.0    400.0      1.0
     419 2002 12 21 12 35 14 778  4.6504     82.84417    269.53588    150.20804    -25.00000     25.00000     -6.88682    150.0    150.0      0.0      0.0    -20.0    400.0      1.0
     420 2002 12 21 12 35 19 463  4.6844     82.73236    269.54128    150.18925    -25.00000     25.00000     -6.92656    150.0    150.0      0.0      0.0    -20.0    400.0      1.0
     421 2002 12 21 12 35 24 119  4.6566     82.62129    269.53054    150.17658    -25.00000     25.00000     -6.91821    150.0    150.0      0.0      0.0    -20.0    400.0      1.0
     422 2002 12 21 12 35 28 788  4.6683     82.51134    269.50612    150.15879    -25.00000     25.00000     -6.99223    150.0    150.0      0.0      0.0    -20.0    400.0      1.0
     423 2002 12 21 12 35 33 470  4.6819     82.40427    269.48633    150.14703    -25.00000     25.00000     -7.02425    150.0    150.0      0.0      0.0    -20.0    400.0      1.0
     424 2002 12 21 12 35 38 138  4.6679     82.26925    269.47984    150.14007    -25.00000     25.00000     -7.09845    150.0    150.0      0.0      0.0    -20.0    400.0      1.0
     425 2002 12 21 12 35 42 827  4.6898     82.13407    269.49242    150.13951    -25.00000     25.00000     -7.23619    150.0    150.0      0.0      0.0    -20.0    400.0      1.0
     426 2002 12 21 12 35 47 499  4.6713     81.98494    269.51884    150.16087    -25.00000     25.00000     -7.27563    150.0    150.0      0.0      0.0    -20.0    400.0      1.0
     427 2002 12 21 12 35 52 171  4.6721     81.87089    269.55315    150.18563    -25.00000     25.00000     -7.38714    150.0    150.0      0.0      0.0    -20.0    400.0      1.0
     428 2002 12 21 12 35 56 858  4.6872     81.76020    269.57866    150.22168    -25.00000     25.00000     -7.47632    150.0    150.0      0.0      0.0    -20.0    400.0      1.0
     429 2002 12 21 12 36  1 550  4.6922     81.64695    269.59269    150.26229    -25.00000     25.00000     -7.54037    150.0    150.0      0.0      0.0    -20.0    400.0      1.0
     430 2002 12 21 12 36  6 253  4.7034     81.56189    269.59791    150.28520    -25.00000     25.00000     -7.69143    150.0    150.0      0.0      0.0    -20.0    400.0      1.0
     431 2002 12 21 12 36 10 938  4.6842     81.47581    269.59830    150.31471    -25.00000     25.00000     -7.78402    150.0    150.0      0.0      0.0    -20.0    400.0      1.0
     432 2002 12 21 12 36 15 629  4.6917     81.39381    269.58763    150.33101    -25.00000     25.00000     -7.92474    150.0    150.0      0.0      0.0    -20.0    400.0      1.0
     433 2002 12 21 12 36 20 309  4.6799     81.32666    269.57295    150.35823    -25.00000     25.00000     -8.04004    150.0    150.0      0.0      0.0    -20.0    400.0      1.0
     434 2002 12 21 12 36 24 990  4.6810     81.34893    269.55685    150.39072    -25.00000     25.00000     -8.13098    150.0    150.0      0.0      0.0    -20.0    400.0      1.0
     435 2002 12 21 12 36 29 667  4.6770     81.39045    269.54891    150.42062    -25.00000     25.00000     -8.25241    150.0    150.0      0.0      0.0    -20.0    400.0      1.0
     436 2002 12 21 12 36 34 343  4.6754     81.25547    269.55615    150.46635    -25.00000     25.00000     -8.34758    150.0    150.0      0.0      0.0    -20.0    400.0      1.0
     437 2002 12 21 12 36 39  14  4.6716     81.11566    269.56728    150.51164    -25.00000     25.00000     -8.48293    150.0    150.0      0.0      0.0    -20.0    400.0      1.0
     438 2002 12 21 12 36 43 686  4.6715     80.96655    269.57552    150.57120    -25.00000     25.00000     -8.62241    150.0    150.0      0.0      0.0    -20.0    400.0      1.0
     439 2002 12 21 12 36 48 353  4.6677     80.78485    269.59015    150.64044    -25.00000     25.00000     -8.72074    150.0    150.0      0.0      0.0    -20.0    400.0      1.0
     440 2002 12 21 12 36 53  22  4.6689     80.70850    269.60305    150.70021    -25.00000     25.00000     -8.84260    150.0    150.0      0.0      0.0    -20.0    400.0      1.0
     441 2002 12 21 12 36 57 685  4.6626     80.69551    269.61072    150.77470    -25.00000     25.00000     -8.92763    150.0    150.0      0.0      0.0    -20.0    400.0      1.0
     442 2002 12 21 12 37  2 348  4.6634     80.71225    269.61449    150.85659    -25.00000     25.00000     -9.01121    150.0    150.0      0.0      0.0    -20.0    400.0      1.0
     443 2002 12 21 12 37  7   6  4.6574     80.63324    269.61098    150.92764    -25.00000     25.00000     -9.10226    150.0    150.0      0.0      0.0    -20.0    400.0      1.0
     444 2002 12 21 12 37 11 660  4.6545     80.49652    269.60295    151.01913    -25.00000     25.00000     -9.22187    150.0    150.0      0.0      0.0    -20.0    400.0      1.0
     445 2002 12 21 12 37 16 300  4.6399     80.34101    269.59517    151.10578    -25.00000     25.00000     -9.30860    150.0    150.0      0.0      0.0    -20.0    400.0      1.0
     446 2002 12 21 12 37 20 947  4.6465     80.18328    269.59757    151.19712    -25.00000     25.00000     -9.38015    150.0    150.0      0.0      0.0    -20.0    400.0      1.0
     447 2002 12 21 12 37 25 583  4.6361     79.87154    269.60568    151.29003    -25.00000     25.00000     -9.31255    150.0    150.0      0.0      0.0    -20.0    400.0      1.0
     448 2002 12 21 12 37 30 217  4.6339     79.47906    269.62700    151.37527    -25.00000     25.00000     -9.25657    150.0    150.0      0.0      0.0    -20.0    400.0      1.0
     449 2002 12 21 12 37 34 842  4.6255     79.06357    269.66101    151.45982    -25.00000     25.00000     -9.21291    150.0    150.0      0.0      0.0    -20.0    400.0      1.0
     450 2002 12 21 12 37 39 429  4.5871     78.71626    269.69480    151.53320    -25.00000     25.00000     -9.13302    150.0    150.0      0.0      0.0    -20.0    400.0      1.0
     451 2002 12 21 12 37 43 990  4.5608     78.52218    269.71274    151.60528    -25.00000     25.00000     -9.09769    150.0    150.0      0.0      0.0    -20.0    400.0      1.0
     452 2002 12 21 12 37 48 584  4.5939     78.37308    269.72339    151.64509    -25.00000     25.00000     -9.05355    150.0    150.0      0.0      0.0    -20.0    400.0      1.0
     453 2002 12 21 12 37 53 176  4.5917     78.23552    269.72170    151.63465    -25.00000     25.00000     -8.97624    150.0    150.0      0.0      0.0    -20.0    400.0      1.0
     454 2002 12 21 12 37 57 736  4.5606     78.06824    269.71083    151.60359    -25.00000     25.00000     -8.95615    150.0    150.0      0.0      0.0    -20.0    400.0      1.0
     455 2002 12 21 12 38  2 272  4.5356     77.95560    269.69897    151.55564    -25.00000     25.00000     -8.94156    150.0    150.0      0.0      0.0    -20.0    400.0      1.0
     456 2002 12 21 12 38  6 827  4.5549     77.87786    269.69889    151.49499    -25.00000     25.00000     -8.86438    150.0    150.0      0.0      0.0    -20.0    400.0      1.0
     457 2002 12 21 12 38 11 393  4.5662     77.79165    269.71419    151.43289    -25.00000     25.00000     -8.88578    150.0    150.0      0.0      0.0    -20.0    400.0      1.0
     458 2002 12 21 12 38 15 965  4.5726     77.76758    269.73991    151.37094    -25.00000     25.00000     -8.79632    150.0    150.0      0.0      0.0    -20.0    400.0      1.0
     459 2002 12 21 12 38 20 545  4.5794     77.77464    269.77373    151.30763    -25.00000     25.00000     -8.80115    150.0    150.0      0.0      0.0    -20.0    400.0      1.0
     460 2002 12 21 12 38 25 129  4.5842     77.77652    269.79701    151.24146    -25.00000     25.00000     -8.81650    150.0    150.0      0.0      0.0    -20.0    400.0      1.0
     461 2002 12 21 12 38 29 718  4.5886     77.72785    269.81045    151.17890    -25.00000     25.00000     -8.80997    150.0    150.0      0.0      0.0    -20.0    400.0      1.0
     462 2002 12 21 12 38 34 310  4.5925     77.67821    269.81466    151.11046    -25.00000     25.00000     -8.83138    150.0    150.0      0.0      0.0    -20.0    400.0      1.0
     463 2002 12 21 12 38 38 906  4.5959     77.66005    269.81981    151.04536    -25.00000     25.00000     -8.83988    150.0    150.0      0.0      0.0    -20.0    400.0      1.0
     464 2002 12 21 12 38 43 505  4.5989     77.70935    269.81902    150.97710    -25.00000     25.00000     -8.86274    150.0    150.0      0.0      0.0    -20.0    400.0      1.0
     465 2002 12 21 12 38 48 107  4.6016     77.74620    269.81746    150.90995    -25.00000     25.00000     -8.92028    150.0    150.0      0.0      0.0    -20.0    400.0      1.0
     466 2002 12 21 12 38 52 711  4.6041     77.74622    269.82595    150.84006    -25.00000     25.00000     -8.92372    150.0    150.0      0.0      0.0    -20.0    400.0      1.0
     467 2002 12 21 12 38 57 317  4.6064     77.73971    269.84218    150.77222    -25.00000     25.00000     -8.92393    150.0    150.0      0.0      0.0    -20.0    400.0      1.0
     468 2002 12 21 12 39  1 926  4.6086     77.72136    269.87281    150.70099    -25.00000     25.00000     -8.91584    150.0    150.0      0.0      0.0    -20.0    400.0      1.0
     469 2002 12 21 12 39  6 536  4.6106     77.69727    269.90855    150.63131    -25.00000     25.00000     -8.87991    150.0    150.0      0.0      0.0    -20.0    400.0      1.0
     470 2002 12 21 12 39 11 149  4.6126     77.69723    269.92915    150.56031    -25.00000     25.00000     -8.87185    150.0    150.0      0.0      0.0    -20.0    400.0      1.0
     471 2002 12 21 12 39 15 764  4.6145     77.78874    269.94259    150.49000    -25.00000     25.00000     -8.89466    150.0    150.0      0.0      0.0    -20.0    400.0      1.0
     472 2002 12 21 12 39 20 380  4.6166     77.96247    269.96278    150.41915    -25.00000     25.00000     -8.94255    150.0    150.0      0.0      0.0    -20.0    400.0      1.0
     473 2002 12 21 12 39 24 999  4.6187     77.94274    269.97703    150.34906    -25.00000     25.00000     -9.00305    150.0    150.0      0.0      0.0    -20.0    400.0      1.0
     474 2002 12 21 12 39 29 620  4.6210     77.93586    269.98380    150.27681    -25.00000     25.00000     -9.04873    150.0    150.0      0.0      0.0    -20.0    400.0      1.0
     475 2002 12 21 12 39 34 243  4.6235     77.92374    269.98441    150.20669    -25.00000     25.00000     -9.14676    150.0    150.0      0.0      0.0    -20.0    400.0      1.0
     476 2002 12 21 12 39 38 870  4.6264     77.93189    269.97670    150.13384    -25.00000     25.00000     -9.21687    150.0    150.0      0.0      0.0    -20.0    400.0      1.0
     477 2002 12 21 12 39 43 499  4.6294     78.01179    269.97029    150.06518    -25.00000     25.00000     -9.33751    150.0    150.0      0.0      0.0    -20.0    400.0      1.0
     478 2002 12 21 12 39 48 132  4.6326     78.16573    269.97332    149.99558    -25.00000     25.00000     -9.45479    150.0    150.0      0.0      0.0    -20.0    400.0      1.0
     479 2002 12 21 12 39 52 768  4.6363     78.36974    269.98600    149.92819    -25.00000     25.00000     -9.51721    150.0    150.0      0.0      0.0    -20.0    400.0      1.0
     480 2002 12 21 12 39 57 409  4.6407     78.41085    270.01048    149.86585    -25.00000     25.00000     -9.56015    150.0    150.0      0.0      0.0    -20.0    400.0      1.0
     481 2002 12 21 12 40  2  55  4.6458     78.41945    270.05103    149.79989    -25.00000     25.00000     -9.64462    150.0    150.0      0.0      0.0    -20.0    400.0      1.0
     482 2002 12 21 12 40  6 707  4.6519     78.43378    270.08058    149.74680    -25.00000     25.00000     -9.71271    150.0    150.0      0.0      0.0    -20.0    400.0      1.0
     483 2002 12 21 12 40 11 365  4.6589     78.48537    270.11364    149.68568    -25.00000     25.00000     -9.78071    150.0    150.0      0.0      0.0    -20.0    400.0      1.0
     484 2002 12 21 12 40 16  32  4.6669     78.59922    270.12223    149.63649    -25.00000     25.00000     -9.89036    150.0    150.0      0.0      0.0    -20.0    400.0      1.0
     485 2002 12 21 12 40 20 708  4.6757     78.76722    270.11553    149.58395    -25.00000     25.00000     -9.97723    150.0    150.0      0.0      0.0    -20.0    400.0      1.0
     486 2002 12 21 12 40 25 393  4.6855     79.01226    270.09507    149.53930    -25.00000     25.00000    -10.06969    150.0    150.0      0.0      0.0    -20.0    400.0      1.0
     487 2002 12 21 12 40 30  89  4.6961     79.15700    270.07675    149.50074    -25.00000     25.00000    -10.13518    150.0    150.0      0.0      0.0    -20.0    400.0      1.0
     488 2002 12 21 12 40 34 793  4.7039     79.20081    270.07210    149.46006    -25.00000     25.00000    -10.18323    150.0    150.0      0.0      0.0    -20.0    400.0      1.0
     489 2002 12 21 12 40 39 513  4.7195     79.25283    270.08413    149.43657    -25.00000     25.00000    -10.29091    150.0    150.0      0.0      0.0    -20.0    400.0      1.0
     490 2002 12 21 12 40 44 222  4.7087     79.38410    270.10527    149.40933    -25.00000     25.00000    -10.31472    150.0    150.0      0.0      0.0    -20.0    400.0      1.0
     491 2002 12 21 12 40 48 932  4.7102     79.57092    270.13824    149.39849    -25.00000     25.00000    -10.36822    150.0    150.0      0.0      0.0    -20.0    400.0      1.0
     492 2002 12 21 12 40 53 632  4.7007     79.26812    270.16427    149.39080    -25.00000     25.00000    -10.43034    150.0    150.0      0.0      0.0    -20.0    400.0      1.0
     493 2002 12 21 12 40 58 321  4.6883     78.80371    270.17884    149.39087    -25.00000     25.00000    -10.45214    150.0    150.0      0.0      0.0    -20.0    400.0      1.0
     494 2002 12 21 12 41  3  29  4.7078     78.32737    270.18446    149.40036    -25.00000     25.00000    -10.57676    150.0    150.0      0.0      0.0    -20.0    400.0      1.0
     495 2002 12 21 12 41  7 704  4.6758     78.09646    270.18483    149.41308    -25.00000     25.00000    -10.58415    150.0    150.0      0.0      0.0    -20.0    400.0      1.0
     496 2002 12 21 12 41 12 398  4.6936     77.64085    270.17336    149.43793    -25.00000     25.00000    -10.63922    150.0    150.0      0.0      0.0    -20.0    400.0      1.0
     497 2002 12 21 12 41 17  81  4.6826     77.26510    270.16641    149.47276    -25.00000     25.00000    -10.65962    150.0    150.0      0.0      0.0    -20.0    400.0      1.0
     498 2002 12 21 12 41 21 759  4.6783     76.85022    270.16792    149.50869    -25.00000     25.00000    -10.67973    150.0    150.0      0.0      0.0    -20.0    400.0      1.0
     499 2002 12 21 12 41 26 427  4.6680     76.48330    270.17678    149.55318    -25.00000     25.00000    -10.69501    150.0    150.0      0.0      0.0    -20.0    400.0      1.0
     500 2002 12 21 12 41 31 101  4.6738     76.05911    270.19917    149.61398    -25.00000     25.00000    -10.63783    150.0    150.0      0.0      0.0    -20.0    400.0      1.0
     501 2002 12 21 12 41 35 757  4.6567     75.58518    270.22341    149.66650    -25.00000     25.00000    -10.62490    150.0    150.0      0.0      0.0    -20.0    400.0      1.0
     502 2002 12 21 12 41 40 411  4.6532     75.40759    270.23679    149.74016    -25.00000     25.00000    -10.63593    150.0    150.0      0.0      0.0    -20.0    400.0      1.0
     503 2002 12 21 12 41 45  60  4.6491     74.70514    270.24401    149.82645    -25.00000     25.00000    -10.61056    150.0    150.0      0.0      0.0    -20.0    400.0      1.0
     504 2002 12 21 12 41 49 693  4.6333     74.19760    270.25451    149.91009    -25.00000     25.00000    -10.55751    150.0    150.0      0.0      0.0    -20.0    400.0      1.0
     505 2002 12 21 12 41 54 346  4.6530     73.98669    270.25107    150.01468    -25.00000     25.00000    -10.48496    150.0    150.0      0.0      0.0    -20.0    400.0      1.0
     506 2002 12 21 12 41 58 966  4.6204     73.56083    270.23780    150.11104    -25.00000     25.00000    -10.39780    150.0    150.0      0.0      0.0    -20.0    400.0      1.0
     507 2002 12 21 12 42  3 607  4.6407     73.22993    270.22508    150.21051    -25.00000     25.00000    -10.33315    150.0    150.0      0.0      0.0    -20.0    400.0      1.0
     508 2002 12 21 12 42  8 221  4.6135     73.07088    270.21160    150.32618    -25.00000     25.00000    -10.25293    150.0    150.0      0.0      0.0    -20.0    400.0      1.0
     509 2002 12 21 12 42 12 848  4.6275     72.66403    270.20869    150.41737    -25.00000     25.00000    -10.19138    150.0    150.0      0.0      0.0    -20.0    400.0      1.0
     510 2002 12 21 12 42 17 458  4.6095     72.46287    270.22242    150.52743    -25.00000     25.00000    -10.12843    150.0    150.0      0.0      0.0    -20.0    400.0      1.0
     511 2002 12 21 12 42 22  59  4.6014     72.38259    270.23314    150.60146    -25.00000     25.00000     -9.99625    150.0    150.0      0.0      0.0    -20.0    400.0      1.0
     512 2002 12 21 12 42 26 669  4.6104     72.10523    270.24317    150.64436    -25.00000     25.00000     -9.92791    150.0    150.0      0.0      0.0    -20.0    400.0      1.0
     513 2002 12 21 12 42 31 253  4.5838     72.02348    270.25675    150.68271    -25.00000     25.00000     -9.86479    150.0    150.0      0.0      0.0    -20.0    400.0      1.0
     514 2002 12 21 12 42 35 824  4.5703     72.01167    270.27247    150.69571    -25.00000     25.00000     -9.79941    150.0    150.0      0.0      0.0    -20.0    400.0      1.0
     515 2002 12 21 12 42 40 394  4.5704     71.82394    270.28517    150.71627    -25.00000     25.00000     -9.75364    150.0    150.0      0.0      0.0    -20.0    400.0      1.0
     516 2002 12 21 12 42 44 967  4.5734     71.81289    270.28453    150.74171    -25.00000     25.00000     -9.65700    150.0    150.0      0.0      0.0    -20.0    400.0      1.0
     517 2002 12 21 12 42 49 545  4.5781     71.81808    270.26930    150.77068    -25.00000     25.00000     -9.60104    150.0    150.0      0.0      0.0    -20.0    400.0      1.0
     518 2002 12 21 12 42 54  95  4.5501     71.82765    270.24761    150.80649    -25.00000     25.00000     -9.54058    150.0    150.0      0.0      0.0    -20.0    400.0      1.0
     519 2002 12 21 12 42 58 674  4.5791     71.84012    270.23092    150.85462    -25.00000     25.00000     -9.37744    150.0    150.0      0.0      0.0    -20.0    400.0      1.0
     520 2002 12 21 12 43  3 252  4.5778     71.84125    270.22261    150.91387    -25.00000     25.00000     -9.26487    150.0    150.0      0.0      0.0    -20.0    400.0      1.0
     521 2002 12 21 12 43  7 811  4.5590     71.83820    270.23383    150.96724    -25.00000     25.00000     -9.13480    150.0    150.0      0.0      0.0    -20.0    400.0      1.0
     522 2002 12 21 12 43 12 397  4.5857     71.84099    270.25407    150.99242    -25.00000     25.00000     -8.97349    150.0    150.0      0.0      0.0    -20.0    400.0      1.0
     523 2002 12 21 12 43 16 973  4.5759     71.84639    270.28849    151.03520    -25.00000     25.00000     -8.95638    150.0    150.0      0.0      0.0    -20.0    400.0      1.0
     524 2002 12 21 12 43 21 528  4.5547     71.85277    270.31146    151.06937    -25.00000     25.00000     -8.92752    150.0    150.0      0.0      0.0    -20.0    400.0      1.0
     525 2002 12 21 12 43 26 108  4.5800     71.85998    270.33305    151.11984    -25.00000     25.00000     -8.95216    150.0    150.0      0.0      0.0    -20.0    400.0      1.0
     526 2002 12 21 12 43 30 628  4.5201     71.86958    270.32438    151.18054    -25.00000     25.00000     -9.00394    150.0    150.0      0.0      0.0    -20.0    400.0      1.0
     527 2002 12 21 12 43 35 157  4.5293     71.88427    270.29192    151.24177    -25.00000     25.00000     -8.92873    150.0    150.0      0.0      0.0    -20.0    400.0      1.0
     528 2002 12 21 12 43 39 721  4.5643     71.89777    270.24719    151.26411    -25.00000     25.00000     -8.85472    150.0    150.0      0.0      0.0    -20.0    400.0      1.0
     529 2002 12 21 12 43 44 292  4.5707     71.90947    270.21809    151.26824    -25.00000     25.00000     -8.72966    150.0    150.0      0.0      0.0    -20.0    400.0      1.0
     530 2002 12 21 12 43 48 843  4.5509     71.92140    270.20895    151.25687    -25.00000     25.00000     -8.55175    150.0    150.0      0.0      0.0    -20.0    400.0      1.0
     531 2002 12 21 12 43 53 376  4.5328     71.93660    270.22054    151.22988    -25.00000     25.00000     -8.45465    150.0    150.0      0.0      0.0    -20.0    400.0      1.0
     532 2002 12 21 12 43 57 917  4.5415     71.95799    270.24471    151.20106    -25.00000     25.00000     -8.29972    150.0    150.0      0.0      0.0    -20.0    400.0      1.0
     533 2002 12 21 12 44  2 471  4.5540     71.98908    270.28283    151.17509    -25.00000     25.00000     -8.18464    150.0    150.0      0.0      0.0    -20.0    400.0      1.0
     534 2002 12 21 12 44  7  31  4.5601     72.05743    270.31270    151.15207    -25.00000     25.00000     -8.08752    150.0    150.0      0.0      0.0    -20.0    400.0      1.0
     535 2002 12 21 12 44 11 597  4.5654     72.14366    270.32524    151.13040    -25.00000     25.00000     -7.95605    150.0    150.0      0.0      0.0    -20.0    400.0      1.0
     536 2002 12 21 12 44 16 160  4.5633     72.19459    270.32844    151.11020    -25.00000     25.00000     -7.91615    150.0    150.0      0.0      0.0    -20.0    400.0      1.0
     537 2002 12 21 12 44 20 723  4.5625     72.23930    270.32470    151.09324    -25.00000     25.00000     -7.84534    150.0    150.0      0.0      0.0    -20.0    400.0      1.0
     538 2002 12 21 12 44 25 282  4.5595     72.34069    270.31450    151.07657    -25.00000     25.00000     -7.79256    150.0    150.0      0.0      0.0    -20.0    400.0      1.0
     539 2002 12 21 12 44 29 839  4.5572     72.45292    270.29440    151.06061    -25.00000     25.00000     -7.75161    150.0    150.0      0.0      0.0    -20.0    400.0      1.0
     540 2002 12 21 12 44 34 393  4.5539     72.67221    270.27906    151.04300    -25.00000     25.00000     -7.66749    150.0    150.0      0.0      0.0    -20.0    400.0      1.0
     541 2002 12 21 12 44 38 947  4.5539     73.11778    270.27120    151.02596    -25.00000     25.00000     -7.62990    150.0    150.0      0.0      0.0    -20.0    400.0      1.0
     542 2002 12 21 12 44 43 507  4.5597     73.30937    270.27401    151.00825    -25.00000     25.00000     -7.55616    150.0    150.0      0.0      0.0    -20.0    400.0      1.0
     543 2002 12 21 12 44 48  68  4.5609     73.47269    270.29294    150.99099    -25.00000     25.00000     -7.48029    150.0    150.0      0.0      0.0    -20.0    400.0      1.0
     544 2002 12 21 12 44 52 629  4.5611     73.90216    270.30419    150.97464    -25.00000     25.00000     -7.45070    150.0    150.0      0.0      0.0    -20.0    400.0      1.0
     545 2002 12 21 12 44 57 190  4.5613     74.70623    270.30495    150.95729    -25.00000     25.00000     -7.39369    150.0    150.0      0.0      0.0    -20.0    400.0      1.0
     546 2002 12 21 12 45  1 752  4.5614     74.95341    270.30867    150.94110    -25.00000     25.00000     -7.36805    150.0    150.0      0.0      0.0    -20.0    400.0      1.0
     547 2002 12 21 12 45  6 313  4.5616     75.17715    270.30869    150.92650    -25.00000     25.00000     -7.36274    150.0    150.0      0.0      0.0    -20.0    400.0      1.0
     548 2002 12 21 12 45 10 875  4.5617     75.25883    270.29044    150.90973    -25.00000     25.00000     -7.34926    150.0    150.0      0.0      0.0    -20.0    400.0      1.0
     549 2002 12 21 12 45 15 437  4.5619     75.60562    270.27650    150.89090    -25.00000     25.00000     -7.37073    150.0    150.0      0.0      0.0    -20.0    400.0      1.0
     550 2002 12 21 12 45 19 999  4.5621     75.61288    270.26275    150.87265    -25.00000     25.00000     -7.37885    150.0    150.0      0.0      0.0    -20.0    400.0      1.0
     551 2002 12 21 12 45 24 561  4.5623     75.76839    270.25296    150.85392    -25.00000     25.00000     -7.38220    150.0    150.0      0.0      0.0    -20.0    400.0      1.0
     552 2002 12 21 12 45 29 124  4.5626     76.19264    270.25424    150.83379    -25.00000     25.00000     -7.40088    150.0    150.0      0.0      0.0    -20.0    400.0      1.0
     553 2002 12 21 12 45 33 686  4.5627     76.31404    270.26335    150.81436    -25.00000     25.00000     -7.39968    150.0    150.0      0.0      0.0    -20.0    400.0      1.0
     554 2002 12 21 12 45 38 249  4.5629     76.49473    270.27162    150.79209    -25.00000     25.00000     -7.39877    150.0    150.0      0.0      0.0    -20.0    400.0      1.0
     555 2002 12 21 12 45 42 812  4.5630     77.08513    270.28878    150.77134    -25.00000     25.00000     -7.42337    150.0    150.0      0.0      0.0    -20.0    400.0      1.0
     556 2002 12 21 12 45 47 375  4.5632     77.51142    270.31379    150.74699    -25.00000     25.00000     -7.46786    150.0    150.0      0.0      0.0    -20.0    400.0      1.0
     557 2002 12 21 12 45 51 939  4.5633     77.71264    270.33434    150.72376    -25.00000     25.00000     -7.49774    150.0    150.0      0.0      0.0    -20.0    400.0      1.0
     558 2002 12 21 12 45 56 502  4.5636     78.51965    270.34878    150.69728    -25.00000     25.00000     -7.60999    150.0    150.0      0.0      0.0    -20.0    400.0      1.0
     559 2002 12 21 12 46  1  66  4.5638     79.12535    270.35043    150.67047    -25.00000     25.00000     -7.70289    150.0    150.0      0.0      0.0    -20.0    400.0      1.0
     560 2002 12 21 12 46  5 630  4.5641     79.42170    270.34559    150.64092    -25.00000     25.00000     -7.82927    150.0    150.0      0.0      0.0    -20.0    400.0      1.0
     561 2002 12 21 12 46 10 195  4.5645     80.01107    270.33245    150.61172    -25.00000     25.00000     -7.96681    150.0    150.0      0.0      0.0    -20.0    400.0      1.0
     562 2002 12 21 12 46 14 760  4.5648     80.16763    270.32448    150.57917    -25.00000     25.00000     -8.04501    150.0    150.0      0.0      0.0    -20.0    400.0      1.0
     563 2002 12 21 12 46 19 325  4.5651     80.35369    270.32685    150.54534    -25.00000     25.00000     -8.20559    150.0    150.0      0.0      0.0    -20.0    400.0      1.0
     564 2002 12 21 12 46 23 890  4.5655     80.49624    270.34092    150.51186    -25.00000     25.00000     -8.31458    150.0    150.0      0.0      0.0    -20.0    400.0      1.0
     565 2002 12 21 12 46 28 456  4.5658     80.53455    270.36804    150.47437    -25.00000     25.00000     -8.42054    150.0    150.0      0.0      0.0    -20.0    400.0      1.0
     566 2002 12 21 12 46 33  22  4.5662     80.31266    270.39835    150.43703    -25.00000     25.00000     -8.60942    150.0    150.0      0.0      0.0    -20.0    400.0      1.0
     567 2002 12 21 12 46 37 589  4.5665     79.97714    270.42564    150.39712    -25.00000     25.00000     -8.68669    150.0    150.0      0.0      0.0    -20.0    400.0      1.0
     568 2002 12 21 12 46 42 155  4.5668     79.61478    270.43457    150.35600    -25.00000     25.00000     -8.87396    150.0    150.0      0.0      0.0    -20.0    400.0      1.0
     569 2002 12 21 12 46 46 723  4.5671     79.43695    270.43413    150.31250    -25.00000     25.00000     -9.05536    150.0    150.0      0.0      0.0    -20.0    400.0      1.0
     570 2002 12 21 12 46 51 290  4.5674     79.40562    270.41937    150.26947    -25.00000     25.00000     -9.18571    150.0    150.0      0.0      0.0    -20.0    400.0      1.0
     571 2002 12 21 12 46 55 858  4.5676     79.19763    270.39964    150.22034    -25.00000     25.00000     -9.43511    150.0    150.0      0.0      0.0    -20.0    400.0      1.0
     572 2002 12 21 12 47  0 425  4.5679     78.84583    270.39225    150.17388    -25.00000     25.00000     -9.57248    150.0    150.0      0.0      0.0    -20.0    400.0      1.0
     573 2002 12 21 12 47  4 993  4.5681     78.67870    270.40234    150.12286    -25.00000     25.00000     -9.72864    150.0    150.0      0.0      0.0    -20.0    400.0      1.0
     574 2002 12 21 12 47  9 562  4.5683     78.55474    270.42022    150.07175    -25.00000     25.00000     -9.86178    150.0    150.0      0.0      0.0    -20.0    400.0      1.0
     575 2002 12 21 12 47 14 130  4.5685     78.45054    270.45197    150.01811    -25.00000     25.00000     -9.95380    150.0    150.0      0.0      0.0    -20.0    400.0      1.0
     576 2002 12 21 12 47 18 699  4.5687     78.15544    270.48202    149.96265    -25.00000     25.00000    -10.10647    150.0    150.0      0.0      0.0    -20.0    400.0      1.0
     577 2002 12 21 12 47 23 268  4.5689     77.89468    270.49735    149.90388    -25.00000     25.00000    -10.21538    150.0    150.0      0.0      0.0    -20.0    400.0      1.0
     578 2002 12 21 12 47 27 837  4.5692     77.54887    270.50663    149.84571    -25.00000     25.00000    -10.34640    150.0    150.0      0.0      0.0    -20.0    400.0      1.0
     579 2002 12 21 12 47 32 407  4.5694     77.16845    270.51183    149.78336    -25.00000     25.00000    -10.49962    150.0    150.0      0.0      0.0    -20.0    400.0      1.0
     580 2002 12 21 12 47 36 976  4.5697     76.86143    270.51448    149.72048    -25.00000     25.00000    -10.62321    150.0    150.0      0.0      0.0    -20.0    400.0      1.0
     581 2002 12 21 12 47 41 546  4.5699     76.69393    270.51073    149.65675    -25.00000     25.00000    -10.79919    150.0    150.0      0.0      0.0    -20.0    400.0      1.0
     582 2002 12 21 12 47 46 116  4.5702     76.37867    270.51055    149.58938    -25.00000     25.00000    -10.89549    150.0    150.0      0.0      0.0    -20.0    400.0      1.0
     583 2002 12 21 12 47 50 687  4.5704     76.17733    270.51815    149.52466    -25.00000     25.00000    -11.02121    150.0    150.0      0.0      0.0    -20.0    400.0      1.0
     584 2002 12 21 12 47 55 257  4.5707     75.89717    270.53641    149.45461    -25.00000     25.00000    -11.11292    150.0    150.0      0.0      0.0    -20.0    400.0      1.0
     585 2002 12 21 12 47 59 828  4.5710     75.65603    270.56837    149.38744    -25.00000     25.00000    -11.19506    150.0    150.0      0.0      0.0    -20.0    400.0      1.0
     586 2002 12 21 12 48  4 400  4.5712     75.58140    270.59190    149.31441    -25.00000     25.00000    -11.31248    150.0    150.0      0.0      0.0    -20.0    400.0      1.0
     587 2002 12 21 12 48  8 971  4.5715     75.20475    270.60213    149.24219    -25.00000     25.00000    -11.39179    150.0    150.0      0.0      0.0    -20.0    400.0      1.0
     588 2002 12 21 12 48 13 543  4.5718     75.04455    270.60657    149.16702    -25.00000     25.00000    -11.49298    150.0    150.0      0.0      0.0    -20.0    400.0      1.0
     589 2002 12 21 12 48 18 115  4.5722     75.12319    270.61409    149.09089    -25.00000     25.00000    -11.59089    150.0    150.0      0.0      0.0    -20.0    400.0      1.0
     590 2002 12 21 12 48 22 688  4.5726     74.76515    270.61725    149.01382    -25.00000     25.00000    -11.70353    150.0    150.0      0.0      0.0    -20.0    400.0      1.0
     591 2002 12 21 12 48 27 261  4.5731     74.61217    270.61328    148.93292    -25.00000     25.00000    -11.82375    150.0    150.0      0.0      0.0    -20.0    400.0      1.0
     592 2002 12 21 12 48 31 835  4.5737     74.73978    270.61530    148.85491    -25.00000     25.00000    -11.91350    150.0    150.0      0.0      0.0    -20.0    400.0      1.0
     593 2002 12 21 12 48 36 409  4.5744     74.43030    270.62283    148.77295    -25.00000     25.00000    -12.02270    150.0    150.0      0.0      0.0    -20.0    400.0      1.0
     594 2002 12 21 12 48 40 984  4.5754     74.01926    270.64125    148.69408    -25.00000     25.00000    -12.13528    150.0    150.0      0.0      0.0    -20.0    400.0      1.0
     595 2002 12 21 12 48 45 561  4.5766     73.83979    270.66360    148.61104    -25.00000     25.00000    -12.22956    150.0    150.0      0.0      0.0    -20.0    400.0      1.0
     596 2002 12 21 12 48 50 139  4.5782     73.79703    270.67071    148.52962    -25.00000     25.00000    -12.33790    150.0    150.0      0.0      0.0    -20.0    400.0      1.0
     597 2002 12 21 12 48 54 720  4.5803     73.64715    270.67800    148.44862    -25.00000     25.00000    -12.46802    150.0    150.0      0.0      0.0    -20.0    400.0      1.0
     598 2002 12 21 12 48 59 303  4.5830     73.61538    270.69160    148.36638    -25.00000     25.00000    -12.58822    150.0    150.0      0.0      0.0    -20.0    400.0      1.0
     599 2002 12 21 12 49  3 889  4.5864     73.60150    270.70283    148.28986    -25.00000     25.00000    -12.68651    150.0    150.0      0.0      0.0    -20.0    400.0      1.0
     600 2002 12 21 12 49  8 479  4.5905     73.57591    270.70612    148.20877    -25.00000     25.00000    -12.84674    150.0    150.0      0.0      0.0    -20.0    400.0      1.0
     601 2002 12 21 12 49 13  75  4.5957     73.55529    270.70053    148.13596    -25.00000     25.00000    -12.99027    150.0    150.0      0.0      0.0    -20.0    400.0      1.0
     602 2002 12 21 12 49 17 677  4.6018     73.54019    270.69172    148.05824    -25.00000     25.00000    -13.10708    150.0    150.0      0.0      0.0    -20.0    400.0      1.0
     603 2002 12 21 12 49 22 286  4.6091     73.51403    270.67967    147.98674    -25.00000     25.00000    -13.26506    150.0    150.0      0.0      0.0    -20.0    400.0      1.0
     604 2002 12 21 12 49 26 904  4.6179     73.49933    270.67305    147.91866    -25.00000     25.00000    -13.35219    150.0    150.0      0.0      0.0    -20.0    400.0      1.0
     605 2002 12 21 12 49 31 532  4.6281     73.51775    270.67405    147.84967    -25.00000     25.00000    -13.46142    150.0    150.0      0.0      0.0    -20.0    400.0      1.0
     606 2002 12 21 12 49 36 172  4.6402     73.53453    270.68700    147.79293    -25.00000     25.00000    -13.53094    150.0    150.0      0.0      0.0    -20.0    400.0      1.0
     607 2002 12 21 12 49 40 826  4.6537     73.52251    270.71664    147.73341    -25.00000     25.00000    -13.56230    150.0    150.0      0.0      0.0    -20.0    400.0      1.0
     608 2002 12 21 12 49 45 495  4.6690     73.52504    270.74627    147.68350    -25.00000     25.00000    -13.64763    150.0    150.0      0.0      0.0    -20.0    400.0      1.0
     609 2002 12 21 12 49 50 180  4.6854     73.54262    270.77133    147.64049    -25.00000     25.00000    -13.65489    150.0    150.0      0.0      0.0    -20.0    400.0      1.0
     610 2002 12 21 12 49 54 883  4.7028     73.57528    270.77523    147.59800    -25.00000     25.00000    -13.68881    150.0    150.0      0.0      0.0    -20.0    400.0      1.0
     611 2002 12 21 12 49 59 595  4.7119     73.64396    270.76093    147.57454    -25.00000     25.00000    -13.78184    150.0    150.0      0.0      0.0    -20.0    400.0      1.0
     612 2002 12 21 12 50  4 314  4.7193     73.65593    270.72885    147.54598    -25.00000     25.00000    -13.77431    150.0    150.0      0.0      0.0    -20.0    400.0      1.0
     613 2002 12 21 12 50  9  40  4.7258     73.66932    270.69610    147.53494    -25.00000     25.00000    -13.83063    150.0    150.0      0.0      0.0    -20.0    400.0      1.0
     614 2002 12 21 12 50 13 765  4.7247     73.70409    270.68524    147.52634    -25.00000     25.00000    -13.79098    150.0    150.0      0.0      0.0    -20.0    400.0      1.0
     615 2002 12 21 12 50 18 525  4.7600     73.76069    270.69597    147.52559    -25.00000     25.00000    -13.75914    150.0    150.0      0.0      0.0    -20.0    400.0      1.0
     616 2002 12 21 12 50 23 268  4.7437     73.82727    270.71972    147.53818    -25.00000     25.00000    -13.71849    150.0    150.0      0.0      0.0    -20.0    400.0      1.0
     617 2002 12 21 12 50 28   0  4.7311     73.85870    270.75951    147.55153    -25.00000     25.00000    -13.60839    150.0    150.0      0.0      0.0    -20.0    400.0      1.0
     618 2002 12 21 12 50 32 726  4.7270     73.87784    270.79085    147.57859    -25.00000     25.00000    -13.59314    150.0    150.0      0.0      0.0    -20.0    400.0      1.0
     619 2002 12 21 12 50 37 432  4.7059     73.89198    270.80219    147.62301    -25.00000     25.00000    -13.53102    150.0    150.0      0.0      0.0    -20.0    400.0      1.0
     620 2002 12 21 12 50 42 138  4.7058     73.90346    270.80144    147.67923    -25.00000     25.00000    -13.50971    150.0    150.0      0.0      0.0    -20.0    400.0      1.0
     621 2002 12 21 12 50 46 821  4.6825     73.91301    270.78480    147.74885    -25.00000     25.00000    -13.29753    150.0    150.0      0.0      0.0    -20.0    400.0      1.0
     622 2002 12 21 12 50 51 509  4.6881     73.92092    270.75816    147.82340    -25.00000     25.00000    -13.17281    150.0    150.0      0.0      0.0    -20.0    400.0      1.0
     623 2002 12 21 12 50 56 171  4.6620     73.92745    270.73417    147.89967    -25.00000     25.00000    -13.05181    150.0    150.0      0.0      0.0    -20.0    400.0      1.0
     624 2002 12 21 12 51  0 842  4.6711     73.93293    270.72358    147.98263    -25.00000     25.00000    -12.85266    150.0    150.0      0.0      0.0    -20.0    400.0      1.0
     625 2002 12 21 12 51  5 488  4.6464     73.93754    270.72261    148.06355    -25.00000     25.00000    -12.67839    150.0    150.0      0.0      0.0    -20.0    400.0      1.0
     626 2002 12 21 12 51 10 144  4.6556     73.94236    270.73652    148.14948    -25.00000     25.00000    -12.44797    150.0    150.0      0.0      0.0    -20.0    400.0      1.0
     627 2002 12 21 12 51 14 776  4.6324     73.94268    270.76410    148.23219    -25.00000     25.00000    -12.22831    150.0    150.0      0.0      0.0    -20.0    400.0      1.0
     628 2002 12 21 12 51 19 418  4.6418     73.93582    270.78171    148.31856    -25.00000     25.00000    -12.01709    150.0    150.0      0.0      0.0    -20.0    400.0      1.0
     629 2002 12 21 12 51 24  39  4.6205     73.92896    270.78312    148.40702    -25.00000     25.00000    -11.78676    150.0    150.0      0.0      0.0    -20.0    400.0      1.0
     630 2002 12 21 12 51 28 669  4.6302     73.92316    270.78765    148.49808    -25.00000     25.00000    -11.60494    150.0    150.0      0.0      0.0    -20.0    400.0      1.0
     631 2002 12 21 12 51 33 279  4.6102     73.91856    270.78633    148.59275    -25.00000     25.00000    -11.38057    150.0    150.0      0.0      0.0    -20.0    400.0      1.0
     632 2002 12 21 12 51 37 899  4.6201     73.91841    270.77951    148.69021    -25.00000     25.00000    -11.19903    150.0    150.0      0.0      0.0    -20.0    400.0      1.0
     633 2002 12 21 12 51 42 501  4.6024     73.92185    270.76853    148.78828    -25.00000     25.00000    -11.02472    150.0    150.0      0.0      0.0    -20.0    400.0      1.0
     634 2002 12 21 12 51 47 113  4.6116     73.93466    270.76197    148.89049    -25.00000     25.00000    -10.85434    150.0    150.0      0.0      0.0    -20.0    400.0      1.0
     635 2002 12 21 12 51 51 710  4.5965     73.96207    270.76361    148.99566    -25.00000     25.00000    -10.64430    150.0    150.0      0.0      0.0    -20.0    400.0      1.0
     636 2002 12 21 12 51 56 314  4.6047     73.99324    270.77935    149.10500    -25.00000     25.00000    -10.45534    150.0    150.0      0.0      0.0    -20.0    400.0      1.0
     637 2002 12 21 12 52  0 907  4.5928     74.01608    270.79626    149.21775    -25.00000     25.00000    -10.25856    150.0    150.0      0.0      0.0    -20.0    400.0      1.0
     638 2002 12 21 12 52  5 506  4.5990     74.05338    270.80180    149.33439    -25.00000     25.00000    -10.06728    150.0    150.0      0.0      0.0    -20.0    400.0      1.0
     639 2002 12 21 12 52 10  99  4.5933     74.12032    270.80504    149.45331    -25.00000     25.00000     -9.90036    150.0    150.0      0.0      0.0    -20.0    400.0      1.0
     640 2002 12 21 12 52 14 695  4.5960     74.23950    270.81133    149.57601    -25.00000     25.00000     -9.72410    150.0    150.0      0.0      0.0    -20.0    400.0      1.0
     641 2002 12 21 12 52 19 292  4.5961     74.36048    270.80850    149.69933    -25.00000     25.00000     -9.59387    150.0    150.0      0.0      0.0    -20.0    400.0      1.0
     642 2002 12 21 12 52 23 889  4.5978     74.59213    270.79989    149.83105    -25.00000     25.00000     -9.44391    150.0    150.0      0.0      0.0    -20.0    400.0      1.0
     643 2002 12 21 12 52 28 491  4.6011     74.77599    270.78041    149.95468    -25.00000     25.00000     -9.22165    150.0    150.0      0.0      0.0    -20.0    400.0      1.0
     644 2002 12 21 12 52 33  90  4.5997     74.95190    270.75506    150.07421    -25.00000     25.00000     -9.04784    150.0    150.0      0.0      0.0    -20.0    400.0      1.0
     645 2002 12 21 12 52 37 691  4.6011     75.44746    270.73712    150.18932    -25.00000     25.00000     -8.89084    150.0    150.0      0.0      0.0    -20.0    400.0      1.0
     646 2002 12 21 12 52 42 294  4.6025     76.00614    270.72792    150.30520    -25.00000     25.00000     -8.74775    150.0    150.0      0.0      0.0    -20.0    400.0      1.0
     647 2002 12 21 12 52 46 898  4.6045     76.28312    270.72909    150.41420    -25.00000     25.00000     -8.62213    150.0    150.0      0.0      0.0    -20.0    400.0      1.0
     648 2002 12 21 12 52 51 504  4.6056     76.75476    270.74520    150.51892    -25.00000     25.00000     -8.39705    150.0    150.0      0.0      0.0    -20.0    400.0      1.0
     649 2002 12 21 12 52 56 111  4.6066     77.89866    270.77532    150.61450    -25.00000     25.00000     -8.28065    150.0    150.0      0.0      0.0    -20.0    400.0      1.0
     650 2002 12 21 12 53  0 718  4.6076     78.25477    270.80334    150.70476    -25.00000     25.00000     -8.13327    150.0    150.0      0.0      0.0    -20.0    400.0      1.0
     651 2002 12 21 12 53  5 327  4.6086     78.81895    270.82559    150.78825    -25.00000     25.00000     -8.00159    150.0    150.0      0.0      0.0    -20.0    400.0      1.0
     652 2002 12 21 12 53  9 936  4.6095     80.37457    270.83088    150.86478    -25.00000     25.00000     -7.94724    150.0    150.0      0.0      0.0    -20.0    400.0      1.0
     653 2002 12 21 12 53 14 547  4.6104     80.78989    270.82085    150.93382    -25.00000     25.00000     -7.82475    150.0    150.0      0.0      0.0    -20.0    400.0      1.0
     654 2002 12 21 12 53 19 158  4.6113     81.03690    270.79585    150.99309    -25.00000     25.00000     -7.77320    150.0    150.0      0.0      0.0    -20.0    400.0      1.0
     655 2002 12 21 12 53 23 770  4.6121     81.10246    270.76405    151.04525    -25.00000     25.00000     -7.73197    150.0    150.0      0.0      0.0    -20.0    400.0      1.0
     656 2002 12 21 12 53 28 383  4.6128     81.22071    270.74954    151.08649    -25.00000     25.00000     -7.61006    150.0    150.0      0.0      0.0    -20.0    400.0      1.0
     657 2002 12 21 12 53 32 996  4.6135     81.36707    270.76080    151.11708    -25.00000     25.00000     -7.55396    150.0    150.0      0.0      0.0    -20.0    400.0      1.0
     658 2002 12 21 12 53 37 610  4.6141     81.49824    270.78625    151.13361    -25.00000     25.00000     -7.42616    150.0    150.0      0.0      0.0    -20.0    400.0      1.0
     659 2002 12 21 12 53 42 225  4.6146     81.41343    270.81961    151.14498    -25.00000     25.00000     -7.39037    150.0    150.0      0.0      0.0    -20.0    400.0      1.0
     660 2002 12 21 12 53 46 840  4.6150     81.09403    270.84094    151.15292    -25.00000     25.00000     -7.37114    150.0    150.0      0.0      0.0    -20.0    400.0      1.0
     661 2002 12 21 12 53 51 455  4.6154     80.91557    270.84606    151.16154    -25.00000     25.00000     -7.31928    150.0    150.0      0.0      0.0    -20.0    400.0      1.0
     662 2002 12 21 12 53 56  71  4.6158     80.93666    270.84189    151.16606    -25.00000     25.00000     -7.36655    150.0    150.0      0.0      0.0    -20.0    400.0      1.0
     663 2002 12 21 12 54  0 687  4.6162     80.77734    270.83385    151.17209    -25.00000     25.00000     -7.31362    150.0    150.0      0.0      0.0    -20.0    400.0      1.0
     664 2002 12 21 12 54  5 304  4.6164     80.64602    270.82059    151.17281    -25.00000     25.00000     -7.34684    150.0    150.0      0.0      0.0    -20.0    400.0      1.0
     665 2002 12 21 12 54  9 921  4.6167     80.62039    270.80900    151.17509    -25.00000     25.00000     -7.36702    150.0    150.0      0.0      0.0    -20.0    400.0      1.0
     666 2002 12 21 12 54 14 538  4.6173     80.72339    270.80411    151.17268    -25.00000     25.00000     -7.33868    150.0    150.0      0.0      0.0    -20.0    400.0      1.0
     667 2002 12 21 12 54 19 155  4.6176     80.74346    270.80618    151.16969    -25.00000     25.00000     -7.34788    150.0    150.0      0.0      0.0    -20.0    400.0      1.0
     668 2002 12 21 12 54 23 774  4.6182     80.72237    270.82219    151.16422    -25.00000     25.00000     -7.30799    150.0    150.0      0.0      0.0    -20.0    400.0      1.0
     669 2002 12 21 12 54 28 392  4.6187     80.80244    270.84026    151.15502    -25.00000     25.00000     -7.30711    150.0    150.0      0.0      0.0    -20.0    400.0      1.0
     670 2002 12 21 12 54 33  12  4.6194     80.84201    270.84906    151.14665    -25.00000     25.00000     -7.31923    150.0    150.0      0.0      0.0    -20.0    400.0      1.0
     671 2002 12 21 12 54 37 632  4.6200     80.62960    270.85774    151.13207    -25.00000     25.00000     -7.30532    150.0    150.0      0.0      0.0    -20.0    400.0      1.0
     672 2002 12 21 12 54 42 252  4.6208     80.60225    270.86939    151.12000    -25.00000     25.00000     -7.36707    150.0    150.0      0.0      0.0    -20.0    400.0      1.0
     673 2002 12 21 12 54 46 874  4.6214     80.36196    270.87307    151.10046    -25.00000     25.00000     -7.42126    150.0    150.0      0.0      0.0    -20.0    400.0      1.0
     674 2002 12 21 12 54 51 496  4.6217     80.12502    270.87068    151.08167    -25.00000     25.00000     -7.50910    150.0    150.0      0.0      0.0    -20.0    400.0      1.0
     675 2002 12 21 12 54 56 116  4.6209     79.89910    270.86792    151.05749    -25.00000     25.00000     -7.61623    150.0    150.0      0.0      0.0    -20.0    400.0      1.0
     676 2002 12 21 12 55  0 737  4.6203     79.82682    270.86733    151.03144    -25.00000     25.00000     -7.69393    150.0    150.0      0.0      0.0    -20.0    400.0      1.0
     677 2002 12 21 12 55  5 356  4.6197     79.91625    270.87659    151.00162    -25.00000     25.00000     -7.79295    150.0    150.0      0.0      0.0    -20.0    400.0      1.0
     678 2002 12 21 12 55  9 976  4.6192     79.93058    270.89050    150.96583    -25.00000     25.00000     -7.87761    150.0    150.0      0.0      0.0    -20.0    400.0      1.0
     679 2002 12 21 12 55 14 595  4.6188     79.83438    270.89274    150.93054    -25.00000     25.00000     -7.95580    150.0    150.0      0.0      0.0    -20.0    400.0      1.0
     680 2002 12 21 12 55 19 213  4.6187     79.81743    270.89580    150.88649    -25.00000     25.00000     -8.08345    150.0    150.0      0.0      0.0    -20.0    400.0      1.0
     681 2002 12 21 12 55 23 832  4.6189     79.81046    270.90865    150.84587    -25.00000     25.00000     -8.17863    150.0    150.0      0.0      0.0    -20.0    400.0      1.0
     682 2002 12 21 12 55 28 451  4.6194     79.81149    270.91882    150.79587    -25.00000     25.00000     -8.28772    150.0    150.0      0.0      0.0    -20.0    400.0      1.0
     683 2002 12 21 12 55 33  72  4.6204     79.80102    270.92603    150.74650    -25.00000     25.00000     -8.46046    150.0    150.0      0.0      0.0    -20.0    400.0      1.0
     684 2002 12 21 12 55 37 694  4.6220     79.74305    270.93121    150.69330    -25.00000     25.00000     -8.56777    150.0    150.0      0.0      0.0    -20.0    400.0      1.0
     685 2002 12 21 12 55 42 318  4.6242     79.61542    270.93110    150.63334    -25.00000     25.00000     -8.70504    150.0    150.0      0.0      0.0    -20.0    400.0      1.0
     686 2002 12 21 12 55 46 945  4.6273     79.44757    270.92855    150.57835    -25.00000     25.00000     -8.86277    150.0    150.0      0.0      0.0    -20.0    400.0      1.0
     687 2002 12 21 12 55 51 577  4.6313     79.28131    270.92557    150.51370    -25.00000     25.00000     -8.97738    150.0    150.0      0.0      0.0    -20.0    400.0      1.0
     688 2002 12 21 12 55 56 213  4.6363     79.10864    270.92687    150.45327    -25.00000     25.00000     -9.12681    150.0    150.0      0.0      0.0    -20.0    400.0      1.0
     689 2002 12 21 12 56  0 855  4.6425     78.80071    270.93977    150.38798    -25.00000     25.00000     -9.21047    150.0    150.0      0.0      0.0    -20.0    400.0      1.0
     690 2002 12 21 12 56  5 505  4.6499     78.30997    270.96416    150.32145    -25.00000     25.00000     -9.31476    150.0    150.0      0.0      0.0    -20.0    400.0      1.0
     691 2002 12 21 12 56 10 164  4.6586     77.81440    270.98638    150.25981    -25.00000     25.00000     -9.44763    150.0    150.0      0.0      0.0    -20.0    400.0      1.0
     692 2002 12 21 12 56 14 833  4.6688     77.45943    271.00526    150.19311    -25.00000     25.00000     -9.53135    150.0    150.0      0.0      0.0    -20.0    400.0      1.0
     693 2002 12 21 12 56 19 513  4.6806     76.99822    271.01385    150.12933    -25.00000     25.00000     -9.70919    150.0    150.0      0.0      0.0    -20.0    400.0      1.0
     694 2002 12 21 12 56 24 207  4.6940     76.47835    271.01786    150.07080    -25.00000     25.00000     -9.85435    150.0    150.0      0.0      0.0    -20.0    400.0      1.0
     695 2002 12 21 12 56 28 916  4.7088     76.14040    271.00980    150.00742    -25.00000     25.00000     -9.98583    150.0    150.0      0.0      0.0    -20.0    400.0      1.0
     696 2002 12 21 12 56 33 641  4.7250     75.98907    270.99599    149.95682    -25.00000     25.00000    -10.17024    150.0    150.0      0.0      0.0    -20.0    400.0      1.0
     697 2002 12 21 12 56 38 382  4.7409     75.54335    270.99027    149.90005    -25.00000     25.00000    -10.26527    150.0    150.0      0.0      0.0    -20.0    400.0      1.0
     698 2002 12 21 12 56 43 140  4.7575     75.24847    271.00065    149.85524    -25.00000     25.00000    -10.41049    150.0    150.0      0.0      0.0    -20.0    400.0      1.0
     699 2002 12 21 12 56 47 887  4.7474     75.17934    271.02244    149.81569    -25.00000     25.00000    -10.48673    150.0    150.0      0.0      0.0    -20.0    400.0      1.0
     700 2002 12 21 12 56 52 658  4.7713     74.77443    271.05558    149.77652    -25.00000     25.00000    -10.53799    150.0    150.0      0.0      0.0    -20.0    400.0      1.0
     701 2002 12 21 12 56 57 419  4.7612     74.52118    271.08028    149.74948    -25.00000     25.00000    -10.65169    150.0    150.0      0.0      0.0    -20.0    400.0      1.0
     702 2002 12 21 12 57  2 182  4.7620     74.56187    271.08898    149.71859    -25.00000     25.00000    -10.69748    150.0    150.0      0.0      0.0    -20.0    400.0      1.0
     703 2002 12 21 12 57  6 973  4.7910     74.46430    271.08923    149.69640    -25.00000     25.00000    -10.82350    150.0    150.0      0.0      0.0    -20.0    400.0      1.0
     704 2002 12 21 12 57 11 747  4.7747     74.33177    271.08343    149.67920    -25.00000     25.00000    -10.86221    150.0    150.0      0.0      0.0    -20.0    400.0      1.0
     705 2002 12 21 12 57 16 503  4.7556     74.38176    271.07323    149.66357    -25.00000     25.00000    -10.95044    150.0    150.0      0.0      0.0    -20.0    400.0      1.0
     706 2002 12 21 12 57 21 244  4.7416     74.45408    271.06215    149.66008    -25.00000     25.00000    -11.02767    150.0    150.0      0.0      0.0    -20.0    400.0      1.0
     707 2002 12 21 12 57 25 967  4.7221     74.38160    271.06157    149.66749    -25.00000     25.00000    -11.08863    150.0    150.0      0.0      0.0    -20.0    400.0      1.0
     708 2002 12 21 12 57 30 681  4.7140     74.26151    271.06950    149.68463    -25.00000     25.00000    -11.03493    150.0    150.0      0.0      0.0    -20.0    400.0      1.0
     709 2002 12 21 12 57 35 377  4.6961     74.20808    271.09533    149.71346    -25.00000     25.00000    -10.93876    150.0    150.0      0.0      0.0    -20.0    400.0      1.0
     710 2002 12 21 12 57 40  66  4.6897     74.15430    271.12237    149.74084    -25.00000     25.00000    -10.88335    150.0    150.0      0.0      0.0    -20.0    400.0      1.0
     711 2002 12 21 12 57 44 740  4.6735     74.10827    271.13740    149.77285    -25.00000     25.00000    -10.83905    150.0    150.0      0.0      0.0    -20.0    400.0      1.0
     712 2002 12 21 12 57 49 410  4.6700     74.06916    271.13735    149.80405    -25.00000     25.00000    -10.76562    150.0    150.0      0.0      0.0    -20.0    400.0      1.0
     713 2002 12 21 12 57 54  63  4.6536     74.03453    271.14276    149.83665    -25.00000     25.00000    -10.71721    150.0    150.0      0.0      0.0    -20.0    400.0      1.0
     714 2002 12 21 12 57 58 718  4.6549     73.99627    271.13939    149.86827    -25.00000     25.00000    -10.65260    150.0    150.0      0.0      0.0    -20.0    400.0      1.0
     715 2002 12 21 12 58  3 355  4.6363     73.95898    271.13026    149.89814    -25.00000     25.00000    -10.60215    150.0    150.0      0.0      0.0    -20.0    400.0      1.0
     716 2002 12 21 12 58  7 998  4.6435     73.92787    271.12827    149.92787    -25.00000     25.00000    -10.50586    150.0    150.0      0.0      0.0    -20.0    400.0      1.0
     717 2002 12 21 12 58 12 622  4.6237     73.90334    271.13200    149.95884    -25.00000     25.00000    -10.39175    150.0    150.0      0.0      0.0    -20.0    400.0      1.0
     718 2002 12 21 12 58 17 256  4.6339     73.88329    271.15142    149.99255    -25.00000     25.00000    -10.29418    150.0    150.0      0.0      0.0    -20.0    400.0      1.0
     719 2002 12 21 12 58 21 871  4.6158     73.86657    271.17045    150.02823    -25.00000     25.00000    -10.17763    150.0    150.0      0.0      0.0    -20.0    400.0      1.0
     720 2002 12 21 12 58 26 497  4.6253     73.84921    271.17998    150.06545    -25.00000     25.00000    -10.06032    150.0    150.0      0.0      0.0    -20.0    400.0      1.0
     721 2002 12 21 12 58 31 106  4.6094     73.83543    271.17608    150.10298    -25.00000     25.00000    -10.01286    150.0    150.0      0.0      0.0    -20.0    400.0      1.0
     722 2002 12 21 12 58 35 725  4.6191     73.82354    271.18240    150.14599    -25.00000     25.00000     -9.93182    150.0    150.0      0.0      0.0    -20.0    400.0      1.0
     723 2002 12 21 12 58 40 334  4.6087     73.81227    271.18169    150.18881    -25.00000     25.00000     -9.86799    150.0    150.0      0.0      0.0    -20.0    400.0      1.0
     724 2002 12 21 12 58 44 947  4.6134     73.80202    271.17615    150.23733    -25.00000     25.00000     -9.80945    150.0    150.0      0.0      0.0    -20.0    400.0      1.0
     725 2002 12 21 12 58 49 554  4.6066     73.79187    271.17360    150.28779    -25.00000     25.00000     -9.71503    150.0    150.0      0.0      0.0    -20.0    400.0      1.0
     726 2002 12 21 12 58 54 165  4.6114     73.78182    271.17487    150.34367    -25.00000     25.00000     -9.67000    150.0    150.0      0.0      0.0    -20.0    400.0      1.0
     727 2002 12 21 12 58 58 780  4.6145     73.77224    271.19122    150.40273    -25.00000     25.00000     -9.61052    150.0    150.0      0.0      0.0    -20.0    400.0      1.0
     728 2002 12 21 12 59  3 391  4.6112     73.76330    271.21390    150.46828    -25.00000     25.00000     -9.53706    150.0    150.0      0.0      0.0    -20.0    400.0      1.0
     729 2002 12 21 12 59  8   4  4.6135     73.75537    271.21855    150.53630    -25.00000     25.00000     -9.47950    150.0    150.0      0.0      0.0    -20.0    400.0      1.0
     730 2002 12 21 12 59 12 616  4.6111     73.74790    271.21547    150.60962    -25.00000     25.00000     -9.38354    150.0    150.0      0.0      0.0    -20.0    400.0      1.0
     731 2002 12 21 12 59 17 228  4.6124     73.74103    271.21903    150.69030    -25.00000     25.00000     -9.30886    150.0    150.0      0.0      0.0    -20.0    400.0      1.0
     732 2002 12 21 12 59 21 841  4.6127     73.73370    271.21399    150.77465    -25.00000     25.00000     -9.26604    150.0    150.0      0.0      0.0    -20.0    400.0      1.0
     733 2002 12 21 12 59 26 454  4.6136     73.72495    271.20434    150.86495    -25.00000     25.00000     -9.15873    150.0    150.0      0.0      0.0    -20.0    400.0      1.0
     734 2002 12 21 12 59 31  68  4.6136     73.71556    271.19742    150.95127    -25.00000     25.00000     -9.07062    150.0    150.0      0.0      0.0    -20.0    400.0      1.0
     735 2002 12 21 12 59 35 682  4.6139     73.70610    271.18849    151.03550    -25.00000     25.00000     -8.99586    150.0    150.0      0.0      0.0    -20.0    400.0      1.0
     736 2002 12 21 12 59 40 296  4.6141     73.69697    271.18943    151.12400    -25.00000     25.00000     -8.91156    150.0    150.0      0.0      0.0    -20.0    400.0      1.0
     737 2002 12 21 12 59 44 910  4.6143     73.69048    271.19649    151.21254    -25.00000     25.00000     -8.88428    150.0    150.0      0.0      0.0    -20.0    400.0      1.0
     738 2002 12 21 12 59 49 525  4.6146     73.68721    271.19534    151.30209    -25.00000     25.00000     -8.77624    150.0    150.0      0.0      0.0    -20.0    400.0      1.0
     739 2002 12 21 12 59 54 140  4.6149     73.68667    271.19469    151.38747    -25.00000     25.00000     -8.68688    150.0    150.0      0.0      0.0    -20.0    400.0      1.0
     740 2002 12 21 12 59 58 755  4.6152     73.68269    271.20312    151.47033    -25.00000     25.00000     -8.60381    150.0    150.0      0.0      0.0    -20.0    400.0      1.0
     741 2002 12 21 13  0  0   0  1.2446     73.68268    271.20450    151.49273    -25.00000     25.00000     -8.56117    150.0    150.0      0.0      0.0    -20.0    400.0      1.0
